Date:	31/01/2022		
Time:	13:10		
Sample name:	JC36_74_1		
Position:	296.000018	mm	
Sample surface:	7.595215	cm	
Tube anode:	Mo		
Tube voltage:	30	kV	
Tube current:	30	mA	
Comments	not in position		
Gain	2.150000		
peaking_time	0.300000	m-sec	
trigger_threshold	40.000000	V	
mca_bin_width	2.000000	no:	
number_mca_channels	2048.000000	no:	
gap_time	0.100000	m-sec	
trigger_peaking_time	0.050000	m-sec	
livetime	12.392032	seconds	
runtime	15.000373	seconds	
input_count_rate	69053.001489	cps	
output_count_rate	57045.714797	cps	
triggers	1003252.000000	seconds	
events_in_run	812852.000000	seconds	
channel	content		
 1.00	 0.00
 2.00	 0.00
 3.00	 0.00
 4.00	 0.00
 5.00	 0.00
 6.00	 0.00
 7.00	 0.00
 8.00	 0.00
 9.00	 0.00
10.00	 0.00
11.00	 0.00
12.00	 0.00
13.00	 0.00
14.00	 0.00
15.00	 0.00
16.00	 0.00
17.00	 0.00
18.00	 0.00
19.00	 0.00
20.00	 0.00
21.00	 0.00
22.00	 0.00
23.00	 0.00
24.00	 0.00
25.00	 0.00
26.00	 0.00
27.00	 0.00
28.00	 0.00
29.00	 0.00
30.00	 0.00
31.00	43.00
32.00	45.00
33.00	26.00
34.00	41.00
35.00	37.00
36.00	36.00
37.00	35.00
38.00	30.00
39.00	36.00
40.00	31.00
41.00	33.00
42.00	30.00
43.00	38.00
44.00	37.00
45.00	30.00
46.00	45.00
47.00	54.00
48.00	57.00
49.00	76.00
50.00	108.00
51.00	159.00
52.00	198.00
53.00	309.00
54.00	388.00
55.00	592.00
56.00	755.00
57.00	1082.00
58.00	1471.00
59.00	2048.00
60.00	2698.00
61.00	3189.00
62.00	3409.00
63.00	3504.00
64.00	3382.00
65.00	3344.00
66.00	3243.00
67.00	3219.00
68.00	3151.00
69.00	3024.00
70.00	3028.00
71.00	3029.00
72.00	2886.00
73.00	2909.00
74.00	2858.00
75.00	2927.00
76.00	2852.00
77.00	2862.00
78.00	2814.00
79.00	2746.00
80.00	2854.00
81.00	2807.00
82.00	2952.00
83.00	2901.00
84.00	2990.00
85.00	3023.00
86.00	2988.00
87.00	2868.00
88.00	2909.00
89.00	2843.00
90.00	2676.00
91.00	2637.00
92.00	2596.00
93.00	2569.00
94.00	2497.00
95.00	2463.00
96.00	2437.00
97.00	2363.00
98.00	2424.00
99.00	2345.00
100.00	2364.00
101.00	2299.00
102.00	2249.00
103.00	2323.00
104.00	2277.00
105.00	2227.00
106.00	2227.00
107.00	2271.00
108.00	2194.00
109.00	2141.00
110.00	2081.00
111.00	2058.00
112.00	2035.00
113.00	2002.00
114.00	1924.00
115.00	1942.00
116.00	2049.00
117.00	1919.00
118.00	1878.00
119.00	1871.00
120.00	1887.00
121.00	1844.00
122.00	1828.00
123.00	1800.00
124.00	1707.00
125.00	1748.00
126.00	1789.00
127.00	1713.00
128.00	1620.00
129.00	1661.00
130.00	1587.00
131.00	1586.00
132.00	1603.00
133.00	1537.00
134.00	1556.00
135.00	1542.00
136.00	1533.00
137.00	1543.00
138.00	1550.00
139.00	1593.00
140.00	1597.00
141.00	1717.00
142.00	1670.00
143.00	1775.00
144.00	1894.00
145.00	1893.00
146.00	1812.00
147.00	1796.00
148.00	1782.00
149.00	1753.00
150.00	1686.00
151.00	1626.00
152.00	1599.00
153.00	1566.00
154.00	1503.00
155.00	1520.00
156.00	1414.00
157.00	1383.00
158.00	1386.00
159.00	1320.00
160.00	1380.00
161.00	1466.00
162.00	1612.00
163.00	1896.00
164.00	2326.00
165.00	3046.00
166.00	3946.00
167.00	5047.00
168.00	6173.00
169.00	7082.00
170.00	7477.00
171.00	7563.00
172.00	7162.00
173.00	6602.00
174.00	5501.00
175.00	4465.00
176.00	3629.00
177.00	2892.00
178.00	2416.00
179.00	2002.00
180.00	1950.00
181.00	1793.00
182.00	1857.00
183.00	1899.00
184.00	2184.00
185.00	2398.00
186.00	2870.00
187.00	3370.00
188.00	3845.00
189.00	4417.00
190.00	4659.00
191.00	4821.00
192.00	4621.00
193.00	4236.00
194.00	3818.00
195.00	3096.00
196.00	2599.00
197.00	2177.00
198.00	1618.00
199.00	1394.00
200.00	1243.00
201.00	1065.00
202.00	999.00
203.00	990.00
204.00	969.00
205.00	996.00
206.00	930.00
207.00	961.00
208.00	963.00
209.00	948.00
210.00	946.00
211.00	943.00
212.00	962.00
213.00	980.00
214.00	982.00
215.00	1079.00
216.00	1119.00
217.00	1133.00
218.00	1241.00
219.00	1373.00
220.00	1530.00
221.00	1650.00
222.00	1752.00
223.00	1819.00
224.00	1903.00
225.00	1891.00
226.00	1858.00
227.00	1850.00
228.00	1605.00
229.00	1553.00
230.00	1338.00
231.00	1121.00
232.00	1067.00
233.00	1003.00
234.00	922.00
235.00	824.00
236.00	854.00
237.00	795.00
238.00	773.00
239.00	822.00
240.00	834.00
241.00	841.00
242.00	880.00
243.00	926.00
244.00	1052.00
245.00	1186.00
246.00	1586.00
247.00	2024.00
248.00	2849.00
249.00	4062.00
250.00	5842.00
251.00	8009.00
252.00	10688.00
253.00	13678.00
254.00	16440.00
255.00	18981.00
256.00	20706.00
257.00	21334.00
258.00	20974.00
259.00	19192.00
260.00	16592.00
261.00	13607.00
262.00	10761.00
263.00	8071.00
264.00	5853.00
265.00	4019.00
266.00	2779.00
267.00	2111.00
268.00	1824.00
269.00	1736.00
270.00	1753.00
271.00	1995.00
272.00	2261.00
273.00	2518.00
274.00	2715.00
275.00	2782.00
276.00	2898.00
277.00	2808.00
278.00	2733.00
279.00	2469.00
280.00	2260.00
281.00	2172.00
282.00	2095.00
283.00	2201.00
284.00	2241.00
285.00	2511.00
286.00	2974.00
287.00	3264.00
288.00	3565.00
289.00	3746.00
290.00	3805.00
291.00	3649.00
292.00	3336.00
293.00	2976.00
294.00	2414.00
295.00	2075.00
296.00	1695.00
297.00	1417.00
298.00	1113.00
299.00	938.00
300.00	769.00
301.00	811.00
302.00	690.00
303.00	786.00
304.00	745.00
305.00	757.00
306.00	818.00
307.00	874.00
308.00	983.00
309.00	979.00
310.00	1169.00
311.00	1263.00
312.00	1417.00
313.00	1684.00
314.00	2189.00
315.00	2706.00
316.00	3507.00
317.00	4659.00
318.00	6258.00
319.00	7981.00
320.00	10039.00
321.00	12124.00
322.00	13989.00
323.00	15513.00
324.00	16227.00
325.00	16228.00
326.00	15398.00
327.00	14171.00
328.00	12266.00
329.00	10064.00
330.00	7801.00
331.00	6107.00
332.00	4506.00
333.00	3168.00
334.00	2362.00
335.00	1699.00
336.00	1212.00
337.00	1126.00
338.00	1100.00
339.00	1093.00
340.00	1091.00
341.00	1339.00
342.00	1680.00
343.00	2008.00
344.00	2546.00
345.00	3482.00
346.00	4539.00
347.00	6553.00
348.00	9533.00
349.00	14089.00
350.00	21351.00
351.00	31974.00
352.00	47184.00
353.00	68560.00
354.00	96417.00
355.00	130573.00
356.00	169762.00
357.00	211638.00
358.00	251679.00
359.00	287553.00
360.00	313356.00
361.00	324485.00
362.00	322160.00
363.00	305286.00
364.00	275256.00
365.00	238149.00
366.00	195341.00
367.00	152484.00
368.00	114740.00
369.00	82288.00
370.00	57012.00
371.00	37561.00
372.00	24075.00
373.00	15037.00
374.00	9275.00
375.00	5948.00
376.00	4134.00
377.00	3338.00
378.00	3224.00
379.00	3391.00
380.00	3875.00
381.00	5000.00
382.00	6609.00
383.00	8858.00
384.00	11617.00
385.00	15636.00
386.00	20612.00
387.00	25982.00
388.00	32200.00
389.00	37906.00
390.00	43399.00
391.00	47353.00
392.00	50231.00
393.00	50274.00
394.00	48672.00
395.00	45397.00
396.00	40806.00
397.00	34108.00
398.00	27897.00
399.00	22218.00
400.00	16901.00
401.00	12240.00
402.00	8352.00
403.00	5755.00
404.00	3860.00
405.00	2565.00
406.00	1659.00
407.00	1162.00
408.00	863.00
409.00	726.00
410.00	623.00
411.00	554.00
412.00	580.00
413.00	535.00
414.00	554.00
415.00	549.00
416.00	555.00
417.00	566.00
418.00	505.00
419.00	529.00
420.00	588.00
421.00	557.00
422.00	636.00
423.00	611.00
424.00	613.00
425.00	696.00
426.00	685.00
427.00	855.00
428.00	987.00
429.00	1118.00
430.00	1488.00
431.00	1864.00
432.00	2275.00
433.00	2995.00
434.00	3692.00
435.00	4527.00
436.00	5450.00
437.00	6291.00
438.00	7019.00
439.00	7520.00
440.00	8200.00
441.00	8372.00
442.00	7998.00
443.00	7653.00
444.00	6843.00
445.00	6304.00
446.00	5260.00
447.00	4626.00
448.00	3632.00
449.00	3237.00
450.00	2581.00
451.00	2219.00
452.00	2153.00
453.00	1828.00
454.00	1723.00
455.00	1617.00
456.00	1589.00
457.00	1443.00
458.00	1433.00
459.00	1313.00
460.00	1322.00
461.00	1202.00
462.00	1168.00
463.00	1151.00
464.00	1078.00
465.00	1144.00
466.00	1172.00
467.00	1199.00
468.00	1321.00
469.00	1372.00
470.00	1436.00
471.00	1551.00
472.00	1678.00
473.00	1822.00
474.00	1925.00
475.00	2100.00
476.00	2276.00
477.00	2409.00
478.00	2524.00
479.00	2706.00
480.00	2846.00
481.00	2927.00
482.00	2950.00
483.00	2886.00
484.00	2837.00
485.00	2725.00
486.00	2656.00
487.00	2438.00
488.00	2253.00
489.00	2016.00
490.00	1843.00
491.00	1736.00
492.00	1566.00
493.00	1492.00
494.00	1380.00
495.00	1396.00
496.00	1261.00
497.00	1294.00
498.00	1297.00
499.00	1236.00
500.00	1286.00
501.00	1331.00
502.00	1316.00
503.00	1401.00
504.00	1350.00
505.00	1438.00
506.00	1523.00
507.00	1542.00
508.00	1614.00
509.00	1623.00
510.00	1724.00
511.00	1774.00
512.00	1956.00
513.00	1913.00
514.00	1950.00
515.00	2133.00
516.00	2164.00
517.00	2418.00
518.00	2573.00
519.00	2630.00
520.00	2861.00
521.00	3149.00
522.00	3329.00
523.00	3693.00
524.00	3876.00
525.00	4111.00
526.00	4468.00
527.00	4636.00
528.00	4586.00
529.00	4717.00
530.00	4623.00
531.00	4467.00
532.00	4370.00
533.00	4059.00
534.00	3655.00
535.00	3562.00
536.00	3117.00
537.00	2972.00
538.00	2691.00
539.00	2483.00
540.00	2343.00
541.00	2264.00
542.00	2287.00
543.00	2289.00
544.00	2283.00
545.00	2296.00
546.00	2371.00
547.00	2365.00
548.00	2417.00
549.00	2488.00
550.00	2508.00
551.00	2470.00
552.00	2606.00
553.00	2598.00
554.00	2711.00
555.00	2752.00
556.00	2796.00
557.00	2784.00
558.00	2900.00
559.00	2921.00
560.00	3041.00
561.00	3064.00
562.00	3127.00
563.00	3236.00
564.00	3388.00
565.00	3627.00
566.00	3701.00
567.00	3986.00
568.00	4154.00
569.00	4647.00
570.00	4862.00
571.00	5351.00
572.00	5639.00
573.00	5846.00
574.00	6153.00
575.00	6498.00
576.00	6347.00
577.00	6238.00
578.00	5991.00
579.00	5954.00
580.00	5594.00
581.00	5283.00
582.00	4915.00
583.00	4351.00
584.00	4101.00
585.00	3721.00
586.00	3422.00
587.00	3145.00
588.00	2930.00
589.00	2799.00
590.00	2768.00
591.00	2695.00
592.00	2530.00
593.00	2587.00
594.00	2677.00
595.00	2698.00
596.00	2647.00
597.00	2770.00
598.00	2831.00
599.00	2945.00
600.00	3062.00
601.00	3229.00
602.00	3337.00
603.00	3498.00
604.00	3648.00
605.00	4037.00
606.00	4556.00
607.00	5150.00
608.00	6229.00
609.00	7901.00
610.00	10232.00
611.00	13660.00
612.00	18745.00
613.00	25108.00
614.00	33662.00
615.00	44602.00
616.00	58352.00
617.00	74659.00
618.00	92415.00
619.00	113039.00
620.00	133452.00
621.00	152312.00
622.00	170577.00
623.00	184968.00
624.00	193931.00
625.00	199038.00
626.00	197596.00
627.00	190372.00
628.00	178430.00
629.00	162210.00
630.00	143131.00
631.00	122923.00
632.00	101751.00
633.00	82909.00
634.00	65772.00
635.00	51159.00
636.00	38566.00
637.00	29002.00
638.00	21691.00
639.00	16074.00
640.00	12290.00
641.00	9376.00
642.00	7658.00
643.00	6401.00
644.00	5824.00
645.00	5324.00
646.00	4943.00
647.00	4863.00
648.00	4758.00
649.00	4554.00
650.00	4746.00
651.00	4548.00
652.00	4611.00
653.00	4560.00
654.00	4632.00
655.00	4705.00
656.00	4649.00
657.00	4636.00
658.00	4744.00
659.00	4656.00
660.00	4898.00
661.00	4834.00
662.00	4869.00
663.00	4820.00
664.00	4969.00
665.00	5297.00
666.00	5357.00
667.00	5398.00
668.00	5528.00
669.00	5684.00
670.00	5897.00
671.00	6219.00
672.00	6393.00
673.00	6820.00
674.00	7446.00
675.00	8258.00
676.00	9175.00
677.00	10385.00
678.00	12146.00
679.00	14152.00
680.00	16310.00
681.00	19212.00
682.00	21504.00
683.00	24725.00
684.00	27868.00
685.00	30989.00
686.00	33017.00
687.00	35085.00
688.00	36429.00
689.00	36911.00
690.00	36333.00
691.00	35153.00
692.00	33532.00
693.00	30908.00
694.00	27864.00
695.00	24810.00
696.00	21798.00
697.00	18849.00
698.00	16208.00
699.00	13580.00
700.00	11619.00
701.00	9909.00
702.00	8760.00
703.00	7879.00
704.00	7136.00
705.00	6884.00
706.00	6241.00
707.00	6156.00
708.00	6002.00
709.00	6225.00
710.00	6109.00
711.00	6267.00
712.00	6132.00
713.00	6360.00
714.00	6555.00
715.00	6695.00
716.00	6972.00
717.00	7193.00
718.00	7295.00
719.00	7681.00
720.00	7783.00
721.00	8017.00
722.00	8087.00
723.00	8757.00
724.00	8734.00
725.00	9009.00
726.00	9203.00
727.00	9325.00
728.00	9427.00
729.00	9418.00
730.00	9462.00
731.00	9436.00
732.00	9309.00
733.00	9067.00
734.00	8862.00
735.00	8672.00
736.00	8439.00
737.00	8249.00
738.00	7992.00
739.00	7814.00
740.00	7708.00
741.00	7773.00
742.00	7503.00
743.00	7484.00
744.00	7300.00
745.00	7374.00
746.00	7205.00
747.00	7046.00
748.00	7076.00
749.00	7134.00
750.00	7178.00
751.00	7114.00
752.00	7148.00
753.00	7120.00
754.00	7137.00
755.00	7101.00
756.00	7069.00
757.00	7119.00
758.00	7035.00
759.00	7254.00
760.00	7233.00
761.00	7305.00
762.00	7298.00
763.00	7295.00
764.00	7346.00
765.00	7110.00
766.00	7533.00
767.00	7533.00
768.00	7555.00
769.00	7668.00
770.00	7758.00
771.00	7835.00
772.00	7844.00
773.00	8114.00
774.00	8107.00
775.00	8309.00
776.00	8582.00
777.00	9047.00
778.00	9228.00
779.00	9550.00
780.00	9942.00
781.00	9958.00
782.00	10430.00
783.00	10703.00
784.00	11310.00
785.00	11392.00
786.00	12173.00
787.00	12286.00
788.00	12876.00
789.00	13009.00
790.00	13381.00
791.00	13551.00
792.00	13810.00
793.00	14151.00
794.00	14355.00
795.00	14490.00
796.00	14902.00
797.00	14695.00
798.00	14983.00
799.00	15161.00
800.00	15333.00
801.00	15571.00
802.00	15607.00
803.00	15932.00
804.00	16366.00
805.00	16460.00
806.00	16926.00
807.00	17531.00
808.00	18065.00
809.00	19078.00
810.00	19748.00
811.00	21023.00
812.00	21928.00
813.00	23373.00
814.00	24486.00
815.00	25691.00
816.00	26815.00
817.00	27429.00
818.00	27838.00
819.00	28081.00
820.00	27970.00
821.00	27665.00
822.00	26766.00
823.00	25694.00
824.00	24687.00
825.00	22976.00
826.00	21747.00
827.00	20638.00
828.00	19082.00
829.00	17764.00
830.00	16625.00
831.00	15799.00
832.00	15013.00
833.00	14429.00
834.00	13703.00
835.00	13373.00
836.00	13300.00
837.00	13205.00
838.00	13260.00
839.00	12962.00
840.00	12909.00
841.00	13344.00
842.00	13056.00
843.00	12983.00
844.00	13162.00
845.00	12931.00
846.00	12962.00
847.00	12948.00
848.00	12956.00
849.00	12803.00
850.00	12963.00
851.00	12820.00
852.00	12676.00
853.00	12647.00
854.00	12417.00
855.00	12705.00
856.00	12503.00
857.00	12508.00
858.00	12662.00
859.00	12431.00
860.00	12522.00
861.00	12581.00
862.00	12768.00
863.00	12602.00
864.00	12729.00
865.00	12890.00
866.00	12871.00
867.00	12633.00
868.00	12870.00
869.00	12767.00
870.00	12889.00
871.00	13077.00
872.00	12994.00
873.00	12975.00
874.00	13396.00
875.00	13349.00
876.00	13296.00
877.00	13388.00
878.00	13189.00
879.00	13316.00
880.00	13347.00
881.00	13673.00
882.00	13606.00
883.00	13666.00
884.00	13734.00
885.00	14032.00
886.00	13945.00
887.00	14414.00
888.00	14221.00
889.00	14533.00
890.00	14516.00
891.00	14593.00
892.00	14742.00
893.00	15249.00
894.00	15267.00
895.00	15422.00
896.00	15980.00
897.00	15998.00
898.00	16341.00
899.00	16212.00
900.00	16702.00
901.00	16760.00
902.00	16888.00
903.00	17172.00
904.00	17503.00
905.00	17658.00
906.00	17975.00
907.00	18157.00
908.00	18203.00
909.00	18554.00
910.00	18555.00
911.00	18874.00
912.00	18860.00
913.00	19391.00
914.00	19234.00
915.00	19256.00
916.00	19370.00
917.00	19503.00
918.00	19654.00
919.00	19737.00
920.00	19627.00
921.00	20123.00
922.00	20076.00
923.00	20094.00
924.00	20179.00
925.00	20518.00
926.00	20607.00
927.00	20828.00
928.00	21046.00
929.00	21101.00
930.00	21490.00
931.00	21813.00
932.00	22046.00
933.00	22293.00
934.00	22827.00
935.00	23317.00
936.00	23945.00
937.00	24224.00
938.00	24836.00
939.00	25530.00
940.00	25806.00
941.00	26251.00
942.00	26213.00
943.00	26792.00
944.00	27063.00
945.00	26498.00
946.00	26354.00
947.00	25989.00
948.00	25596.00
949.00	25318.00
950.00	24542.00
951.00	23742.00
952.00	23126.00
953.00	22599.00
954.00	22121.00
955.00	21793.00
956.00	21329.00
957.00	20904.00
958.00	20917.00
959.00	20479.00
960.00	20384.00
961.00	20427.00
962.00	20141.00
963.00	20328.00
964.00	20407.00
965.00	20525.00
966.00	20414.00
967.00	20787.00
968.00	20751.00
969.00	21102.00
970.00	21033.00
971.00	20804.00
972.00	21014.00
973.00	20830.00
974.00	20756.00
975.00	20537.00
976.00	19874.00
977.00	20014.00
978.00	19639.00
979.00	19314.00
980.00	19149.00
981.00	18885.00
982.00	18690.00
983.00	18647.00
984.00	18397.00
985.00	17982.00
986.00	18011.00
987.00	17946.00
988.00	17891.00
989.00	17837.00
990.00	17746.00
991.00	17630.00
992.00	17542.00
993.00	17514.00
994.00	17618.00
995.00	17525.00
996.00	17482.00
997.00	17475.00
998.00	17243.00
999.00	17359.00
1000.00	17530.00
1001.00	17277.00
1002.00	17431.00
1003.00	17408.00
1004.00	17555.00
1005.00	17576.00
1006.00	17482.00
1007.00	17366.00
1008.00	17532.00
1009.00	17564.00
1010.00	17510.00
1011.00	17751.00
1012.00	17360.00
1013.00	17651.00
1014.00	17521.00
1015.00	17450.00
1016.00	17803.00
1017.00	17870.00
1018.00	17585.00
1019.00	17690.00
1020.00	18043.00
1021.00	17787.00
1022.00	18115.00
1023.00	17567.00
1024.00	18141.00
1025.00	18107.00
1026.00	18347.00
1027.00	18684.00
1028.00	18006.00
1029.00	18328.00
1030.00	18461.00
1031.00	18303.00
1032.00	18762.00
1033.00	18599.00
1034.00	18257.00
1035.00	18496.00
1036.00	18382.00
1037.00	18273.00
1038.00	18361.00
1039.00	18307.00
1040.00	18165.00
1041.00	18341.00
1042.00	18184.00
1043.00	18048.00
1044.00	18505.00
1045.00	18362.00
1046.00	18532.00
1047.00	18495.00
1048.00	18611.00
1049.00	18603.00
1050.00	18630.00
1051.00	18967.00
1052.00	18640.00
1053.00	19055.00
1054.00	18687.00
1055.00	18938.00
1056.00	18762.00
1057.00	19238.00
1058.00	18903.00
1059.00	19064.00
1060.00	19279.00
1061.00	19311.00
1062.00	19340.00
1063.00	19170.00
1064.00	19684.00
1065.00	19551.00
1066.00	19606.00
1067.00	19562.00
1068.00	19403.00
1069.00	19594.00
1070.00	19477.00
1071.00	19476.00
1072.00	19537.00
1073.00	19760.00
1074.00	19808.00
1075.00	19496.00
1076.00	19602.00
1077.00	19646.00
1078.00	19851.00
1079.00	19634.00
1080.00	19686.00
1081.00	19916.00
1082.00	19576.00
1083.00	19743.00
1084.00	20064.00
1085.00	19714.00
1086.00	20055.00
1087.00	20190.00
1088.00	19956.00
1089.00	20458.00
1090.00	20437.00
1091.00	20081.00
1092.00	20501.00
1093.00	20767.00
1094.00	20789.00
1095.00	20511.00
1096.00	21117.00
1097.00	20953.00
1098.00	21405.00
1099.00	21284.00
1100.00	21368.00
1101.00	21429.00
1102.00	21404.00
1103.00	21470.00
1104.00	21381.00
1105.00	21336.00
1106.00	21216.00
1107.00	21203.00
1108.00	20892.00
1109.00	21064.00
1110.00	21263.00
1111.00	20869.00
1112.00	21236.00
1113.00	20777.00
1114.00	20883.00
1115.00	21080.00
1116.00	20825.00
1117.00	20707.00
1118.00	21017.00
1119.00	20904.00
1120.00	20714.00
1121.00	20924.00
1122.00	20919.00
1123.00	20919.00
1124.00	20783.00
1125.00	20956.00
1126.00	21204.00
1127.00	20986.00
1128.00	21073.00
1129.00	21154.00
1130.00	21021.00
1131.00	20962.00
1132.00	21153.00
1133.00	21217.00
1134.00	21234.00
1135.00	21389.00
1136.00	21173.00
1137.00	20943.00
1138.00	21084.00
1139.00	21326.00
1140.00	21080.00
1141.00	21501.00
1142.00	21325.00
1143.00	21247.00
1144.00	21205.00
1145.00	21343.00
1146.00	21741.00
1147.00	21598.00
1148.00	21615.00
1149.00	21665.00
1150.00	21960.00
1151.00	22231.00
1152.00	22514.00
1153.00	22521.00
1154.00	23023.00
1155.00	23110.00
1156.00	23499.00
1157.00	23725.00
1158.00	23633.00
1159.00	23972.00
1160.00	23960.00
1161.00	24099.00
1162.00	23996.00
1163.00	24450.00
1164.00	24193.00
1165.00	24032.00
1166.00	23629.00
1167.00	23791.00
1168.00	23584.00
1169.00	23103.00
1170.00	22765.00
1171.00	22893.00
1172.00	22627.00
1173.00	22120.00
1174.00	21808.00
1175.00	21856.00
1176.00	21657.00
1177.00	21281.00
1178.00	21447.00
1179.00	21345.00
1180.00	21110.00
1181.00	21294.00
1182.00	21427.00
1183.00	21367.00
1184.00	21146.00
1185.00	21284.00
1186.00	20860.00
1187.00	21215.00
1188.00	21013.00
1189.00	20963.00
1190.00	21146.00
1191.00	20488.00
1192.00	20952.00
1193.00	21144.00
1194.00	21146.00
1195.00	21336.00
1196.00	21142.00
1197.00	21077.00
1198.00	21385.00
1199.00	21438.00
1200.00	21375.00
1201.00	21658.00
1202.00	21412.00
1203.00	21379.00
1204.00	21240.00
1205.00	21405.00
1206.00	21396.00
1207.00	21442.00
1208.00	21687.00
1209.00	21772.00
1210.00	21957.00
1211.00	21515.00
1212.00	21705.00
1213.00	21889.00
1214.00	22077.00
1215.00	21429.00
1216.00	22028.00
1217.00	21811.00
1218.00	22123.00
1219.00	21899.00
1220.00	22294.00
1221.00	21783.00
1222.00	21890.00
1223.00	22385.00
1224.00	22334.00
1225.00	22399.00
1226.00	22139.00
1227.00	22269.00
1228.00	22326.00
1229.00	22541.00
1230.00	22882.00
1231.00	22245.00
1232.00	22579.00
1233.00	22534.00
1234.00	22724.00
1235.00	22633.00
1236.00	22575.00
1237.00	22685.00
1238.00	22314.00
1239.00	22694.00
1240.00	22498.00
1241.00	22629.00
1242.00	22240.00
1243.00	22870.00
1244.00	22632.00
1245.00	22772.00
1246.00	22729.00
1247.00	22716.00
1248.00	22526.00
1249.00	22663.00
1250.00	22578.00
1251.00	22761.00
1252.00	22650.00
1253.00	22711.00
1254.00	22661.00
1255.00	22760.00
1256.00	22864.00
1257.00	22921.00
1258.00	22571.00
1259.00	23033.00
1260.00	22845.00
1261.00	22986.00
1262.00	22899.00
1263.00	23018.00
1264.00	23026.00
1265.00	23192.00
1266.00	22768.00
1267.00	23124.00
1268.00	23050.00
1269.00	23022.00
1270.00	23057.00
1271.00	23167.00
1272.00	22912.00
1273.00	22855.00
1274.00	23110.00
1275.00	23132.00
1276.00	23356.00
1277.00	23124.00
1278.00	23011.00
1279.00	23522.00
1280.00	23335.00
1281.00	23276.00
1282.00	23278.00
1283.00	23431.00
1284.00	23545.00
1285.00	23691.00
1286.00	23695.00
1287.00	23973.00
1288.00	24209.00
1289.00	24169.00
1290.00	24483.00
1291.00	24686.00
1292.00	24693.00
1293.00	25131.00
1294.00	25300.00
1295.00	25890.00
1296.00	25820.00
1297.00	26068.00
1298.00	26206.00
1299.00	26702.00
1300.00	26470.00
1301.00	27096.00
1302.00	27013.00
1303.00	27098.00
1304.00	27425.00
1305.00	27083.00
1306.00	26823.00
1307.00	27151.00
1308.00	26640.00
1309.00	26751.00
1310.00	26332.00
1311.00	26269.00
1312.00	25846.00
1313.00	25476.00
1314.00	25194.00
1315.00	25218.00
1316.00	25096.00
1317.00	25067.00
1318.00	24793.00
1319.00	24664.00
1320.00	24144.00
1321.00	23999.00
1322.00	24095.00
1323.00	24180.00
1324.00	23906.00
1325.00	23704.00
1326.00	23854.00
1327.00	23861.00
1328.00	23759.00
1329.00	23763.00
1330.00	23798.00
1331.00	23909.00
1332.00	23840.00
1333.00	23743.00
1334.00	23998.00
1335.00	23714.00
1336.00	23995.00
1337.00	24148.00
1338.00	23868.00
1339.00	24095.00
1340.00	23840.00
1341.00	24035.00
1342.00	24187.00
1343.00	24029.00
1344.00	24174.00
1345.00	24236.00
1346.00	24135.00
1347.00	24430.00
1348.00	24112.00
1349.00	24226.00
1350.00	24217.00
1351.00	24462.00
1352.00	24502.00
1353.00	24453.00
1354.00	24536.00
1355.00	24967.00
1356.00	24914.00
1357.00	25377.00
1358.00	25868.00
1359.00	26403.00
1360.00	27096.00
1361.00	27602.00
1362.00	28143.00
1363.00	29513.00
1364.00	30379.00
1365.00	31913.00
1366.00	33322.00
1367.00	34789.00
1368.00	36290.00
1369.00	38015.00
1370.00	39986.00
1371.00	41762.00
1372.00	43706.00
1373.00	45770.00
1374.00	47257.00
1375.00	48841.00
1376.00	50497.00
1377.00	50807.00
1378.00	51682.00
1379.00	51651.00
1380.00	52161.00
1381.00	51737.00
1382.00	50766.00
1383.00	49920.00
1384.00	49204.00
1385.00	46753.00
1386.00	45164.00
1387.00	43424.00
1388.00	41454.00
1389.00	39552.00
1390.00	37149.00
1391.00	35166.00
1392.00	33676.00
1393.00	32130.00
1394.00	30386.00
1395.00	29302.00
1396.00	27981.00
1397.00	27141.00
1398.00	26590.00
1399.00	25871.00
1400.00	25201.00
1401.00	24652.00
1402.00	24180.00
1403.00	23940.00
1404.00	24005.00
1405.00	23593.00
1406.00	23694.00
1407.00	23479.00
1408.00	23307.00
1409.00	23408.00
1410.00	23286.00
1411.00	23301.00
1412.00	23671.00
1413.00	23049.00
1414.00	23328.00
1415.00	23235.00
1416.00	23462.00
1417.00	23270.00
1418.00	23250.00
1419.00	23268.00
1420.00	23195.00
1421.00	23174.00
1422.00	23326.00
1423.00	22945.00
1424.00	23067.00
1425.00	23423.00
1426.00	23131.00
1427.00	23302.00
1428.00	23116.00
1429.00	23094.00
1430.00	23016.00
1431.00	23495.00
1432.00	23420.00
1433.00	23183.00
1434.00	23154.00
1435.00	23244.00
1436.00	23325.00
1437.00	23363.00
1438.00	23403.00
1439.00	23370.00
1440.00	23230.00
1441.00	23549.00
1442.00	23304.00
1443.00	23523.00
1444.00	23746.00
1445.00	23889.00
1446.00	23673.00
1447.00	23587.00
1448.00	23944.00
1449.00	23863.00
1450.00	23952.00
1451.00	24074.00
1452.00	24267.00
1453.00	24461.00
1454.00	24370.00
1455.00	24486.00
1456.00	24417.00
1457.00	24188.00
1458.00	24404.00
1459.00	24620.00
1460.00	24454.00
1461.00	24869.00
1462.00	24315.00
1463.00	24405.00
1464.00	24412.00
1465.00	24289.00
1466.00	24317.00
1467.00	24219.00
1468.00	24014.00
1469.00	24080.00
1470.00	23931.00
1471.00	23927.00
1472.00	23983.00
1473.00	23777.00
1474.00	24200.00
1475.00	23642.00
1476.00	23824.00
1477.00	23728.00
1478.00	23943.00
1479.00	23893.00
1480.00	23789.00
1481.00	23896.00
1482.00	23753.00
1483.00	23876.00
1484.00	24302.00
1485.00	24158.00
1486.00	24013.00
1487.00	24270.00
1488.00	23864.00
1489.00	24196.00
1490.00	24177.00
1491.00	24276.00
1492.00	24277.00
1493.00	24513.00
1494.00	24555.00
1495.00	24323.00
1496.00	24587.00
1497.00	24830.00
1498.00	24505.00
1499.00	24622.00
1500.00	24410.00
1501.00	24583.00
1502.00	24782.00
1503.00	24877.00
1504.00	24687.00
1505.00	24898.00
1506.00	25036.00
1507.00	25016.00
1508.00	24959.00
1509.00	25220.00
1510.00	25380.00
1511.00	25568.00
1512.00	25301.00
1513.00	25864.00
1514.00	25860.00
1515.00	26295.00
1516.00	26116.00
1517.00	26385.00
1518.00	26759.00
1519.00	27043.00
1520.00	27374.00
1521.00	27996.00
1522.00	28334.00
1523.00	28466.00
1524.00	29243.00
1525.00	29755.00
1526.00	30179.00
1527.00	30549.00
1528.00	31530.00
1529.00	32068.00
1530.00	32675.00
1531.00	33420.00
1532.00	34064.00
1533.00	34647.00
1534.00	34993.00
1535.00	35683.00
1536.00	35936.00
1537.00	36574.00
1538.00	36784.00
1539.00	36726.00
1540.00	37343.00
1541.00	37445.00
1542.00	37513.00
1543.00	37473.00
1544.00	37462.00
1545.00	37272.00
1546.00	36729.00
1547.00	36683.00
1548.00	36434.00
1549.00	36229.00
1550.00	35596.00
1551.00	35820.00
1552.00	34979.00
1553.00	35053.00
1554.00	35015.00
1555.00	34768.00
1556.00	34555.00
1557.00	35048.00
1558.00	35081.00
1559.00	35155.00
1560.00	35553.00
1561.00	35897.00
1562.00	36261.00
1563.00	36935.00
1564.00	37348.00
1565.00	38000.00
1566.00	38342.00
1567.00	38953.00
1568.00	39855.00
1569.00	40839.00
1570.00	41306.00
1571.00	42672.00
1572.00	43865.00
1573.00	44227.00
1574.00	45647.00
1575.00	46675.00
1576.00	48317.00
1577.00	49656.00
1578.00	50408.00
1579.00	51799.00
1580.00	53591.00
1581.00	55057.00
1582.00	56595.00
1583.00	57724.00
1584.00	59738.00
1585.00	61061.00
1586.00	62574.00
1587.00	64594.00
1588.00	66088.00
1589.00	68168.00
1590.00	69684.00
1591.00	71206.00
1592.00	73710.00
1593.00	74599.00
1594.00	75739.00
1595.00	78345.00
1596.00	79364.00
1597.00	80427.00
1598.00	82104.00
1599.00	83408.00
1600.00	84444.00
1601.00	85094.00
1602.00	86282.00
1603.00	86919.00
1604.00	87511.00
1605.00	88461.00
1606.00	88860.00
1607.00	88691.00
1608.00	89091.00
1609.00	88175.00
1610.00	88705.00
1611.00	88425.00
1612.00	87690.00
1613.00	87670.00
1614.00	86715.00
1615.00	85825.00
1616.00	85089.00
1617.00	83618.00
1618.00	82823.00
1619.00	81512.00
1620.00	80363.00
1621.00	78692.00
1622.00	76973.00
1623.00	75775.00
1624.00	74114.00
1625.00	72545.00
1626.00	71325.00
1627.00	69606.00
1628.00	67278.00
1629.00	65834.00
1630.00	64552.00
1631.00	62515.00
1632.00	60850.00
1633.00	59119.00
1634.00	57767.00
1635.00	55764.00
1636.00	54106.00
1637.00	52921.00
1638.00	51718.00
1639.00	49853.00
1640.00	48382.00
1641.00	47090.00
1642.00	46035.00
1643.00	44461.00
1644.00	43162.00
1645.00	42044.00
1646.00	40985.00
1647.00	39902.00
1648.00	38627.00
1649.00	37171.00
1650.00	36796.00
1651.00	35913.00
1652.00	34918.00
1653.00	34312.00
1654.00	33422.00
1655.00	32578.00
1656.00	31875.00
1657.00	31141.00
1658.00	30920.00
1659.00	30331.00
1660.00	29883.00
1661.00	28995.00
1662.00	28987.00
1663.00	28459.00
1664.00	28117.00
1665.00	27820.00
1666.00	27127.00
1667.00	26793.00
1668.00	26893.00
1669.00	26399.00
1670.00	26170.00
1671.00	26706.00
1672.00	26403.00
1673.00	26259.00
1674.00	26148.00
1675.00	26835.00
1676.00	27069.00
1677.00	27717.00
1678.00	28267.00
1679.00	29683.00
1680.00	30097.00
1681.00	31625.00
1682.00	32620.00
1683.00	34016.00
1684.00	36137.00
1685.00	37966.00
1686.00	39929.00
1687.00	42516.00
1688.00	44731.00
1689.00	47199.00
1690.00	49623.00
1691.00	51717.00
1692.00	54886.00
1693.00	57341.00
1694.00	59692.00
1695.00	61896.00
1696.00	64203.00
1697.00	65792.00
1698.00	67489.00
1699.00	67997.00
1700.00	68796.00
1701.00	69361.00
1702.00	69470.00
1703.00	68660.00
1704.00	67687.00
1705.00	66372.00
1706.00	64425.00
1707.00	62505.00
1708.00	60295.00
1709.00	57484.00
1710.00	54682.00
1711.00	51566.00
1712.00	48761.00
1713.00	45323.00
1714.00	42581.00
1715.00	40096.00
1716.00	37291.00
1717.00	34648.00
1718.00	32305.00
1719.00	30800.00
1720.00	28745.00
1721.00	26836.00
1722.00	25683.00
1723.00	24736.00
1724.00	23663.00
1725.00	22847.00
1726.00	22415.00
1727.00	21823.00
1728.00	21302.00
1729.00	20942.00
1730.00	20792.00
1731.00	20297.00
1732.00	20032.00
1733.00	19741.00
1734.00	19656.00
1735.00	19741.00
1736.00	19754.00
1737.00	19550.00
1738.00	19614.00
1739.00	19617.00
1740.00	19406.00
1741.00	19681.00
1742.00	19963.00
1743.00	19842.00
1744.00	19575.00
1745.00	19623.00
1746.00	20126.00
1747.00	19949.00
1748.00	19792.00
1749.00	20110.00
1750.00	20409.00
1751.00	20344.00
1752.00	20222.00
1753.00	20418.00
1754.00	20670.00
1755.00	20400.00
1756.00	20703.00
1757.00	20903.00
1758.00	21028.00
1759.00	21266.00
1760.00	21259.00
1761.00	21618.00
1762.00	21745.00
1763.00	21699.00
1764.00	21908.00
1765.00	22097.00
1766.00	22274.00
1767.00	22629.00
1768.00	22693.00
1769.00	23062.00
1770.00	23639.00
1771.00	23605.00
1772.00	23708.00
1773.00	24203.00
1774.00	24384.00
1775.00	24196.00
1776.00	25073.00
1777.00	24615.00
1778.00	25139.00
1779.00	25047.00
1780.00	25478.00
1781.00	25901.00
1782.00	25952.00
1783.00	25952.00
1784.00	26263.00
1785.00	26257.00
1786.00	26575.00
1787.00	26732.00
1788.00	26742.00
1789.00	26911.00
1790.00	26823.00
1791.00	26878.00
1792.00	27041.00
1793.00	27169.00
1794.00	26854.00
1795.00	26977.00
1796.00	26921.00
1797.00	26902.00
1798.00	26475.00
1799.00	26957.00
1800.00	26586.00
1801.00	26415.00
1802.00	26174.00
1803.00	26160.00
1804.00	26068.00
1805.00	25626.00
1806.00	25341.00
1807.00	25082.00
1808.00	25201.00
1809.00	24827.00
1810.00	24594.00
1811.00	24173.00
1812.00	24027.00
1813.00	23539.00
1814.00	23257.00
1815.00	23122.00
1816.00	22779.00
1817.00	22506.00
1818.00	22073.00
1819.00	21909.00
1820.00	21632.00
1821.00	21031.00
1822.00	21128.00
1823.00	20362.00
1824.00	20231.00
1825.00	19467.00
1826.00	19438.00
1827.00	19430.00
1828.00	18872.00
1829.00	18536.00
1830.00	18080.00
1831.00	18265.00
1832.00	17821.00
1833.00	17451.00
1834.00	17067.00
1835.00	16989.00
1836.00	16640.00
1837.00	16291.00
1838.00	16188.00
1839.00	15918.00
1840.00	15455.00
1841.00	15426.00
1842.00	15221.00
1843.00	15035.00
1844.00	14728.00
1845.00	14429.00
1846.00	14504.00
1847.00	14154.00
1848.00	14048.00
1849.00	13795.00
1850.00	13500.00
1851.00	13564.00
1852.00	13372.00
1853.00	13241.00
1854.00	12547.00
1855.00	12735.00
1856.00	12471.00
1857.00	12383.00
1858.00	12302.00
1859.00	12026.00
1860.00	11897.00
1861.00	11965.00
1862.00	11715.00
1863.00	11672.00
1864.00	11547.00
1865.00	11537.00
1866.00	11203.00
1867.00	11248.00
1868.00	11125.00
1869.00	11126.00
1870.00	10794.00
1871.00	10889.00
1872.00	10610.00
1873.00	10686.00
1874.00	10504.00
1875.00	10547.00
1876.00	10547.00
1877.00	10290.00
1878.00	10324.00
1879.00	10279.00
1880.00	10110.00
1881.00	10240.00
1882.00	10179.00
1883.00	10300.00
1884.00	10071.00
1885.00	10225.00
1886.00	10084.00
1887.00	10208.00
1888.00	10281.00
1889.00	10088.00
1890.00	10559.00
1891.00	10259.00
1892.00	10595.00
1893.00	10716.00
1894.00	11005.00
1895.00	10868.00
1896.00	11147.00
1897.00	11797.00
1898.00	11833.00
1899.00	12381.00
1900.00	12713.00
1901.00	12986.00
1902.00	13625.00
1903.00	13811.00
1904.00	14055.00
1905.00	14633.00
1906.00	14877.00
1907.00	15235.00
1908.00	15092.00
1909.00	15343.00
1910.00	15807.00
1911.00	15502.00
1912.00	15574.00
1913.00	15499.00
1914.00	15190.00
1915.00	14857.00
1916.00	14707.00
1917.00	14201.00
1918.00	13808.00
1919.00	13371.00
1920.00	13235.00
1921.00	12737.00
1922.00	12089.00
1923.00	11622.00
1924.00	11532.00
1925.00	10981.00
1926.00	10477.00
1927.00	10204.00
1928.00	10006.00
1929.00	9946.00
1930.00	9620.00
1931.00	9499.00
1932.00	9282.00
1933.00	9129.00
1934.00	9126.00
1935.00	9239.00
1936.00	9189.00
1937.00	9000.00
1938.00	8939.00
1939.00	9227.00
1940.00	9059.00
1941.00	8948.00
1942.00	8767.00
1943.00	9075.00
1944.00	9022.00
1945.00	8923.00
1946.00	8918.00
1947.00	8924.00
1948.00	8811.00
1949.00	8749.00
1950.00	8602.00
1951.00	8466.00
1952.00	8449.00
1953.00	8344.00
1954.00	8282.00
1955.00	8113.00
1956.00	8104.00
1957.00	7896.00
1958.00	7700.00
1959.00	7786.00
1960.00	7540.00
1961.00	7513.00
1962.00	7297.00
1963.00	7505.00
1964.00	7503.00
1965.00	7216.00
1966.00	7255.00
1967.00	7250.00
1968.00	7086.00
1969.00	7298.00
1970.00	7174.00
1971.00	7162.00
1972.00	7084.00
1973.00	7129.00
1974.00	7095.00
1975.00	7048.00
1976.00	7082.00
1977.00	7128.00
1978.00	7087.00
1979.00	6982.00
1980.00	7064.00
1981.00	7112.00
1982.00	6910.00
1983.00	6966.00
1984.00	6866.00
1985.00	6897.00
1986.00	7000.00
1987.00	7130.00
1988.00	6937.00
1989.00	6955.00
1990.00	6952.00
1991.00	6898.00
1992.00	6916.00
1993.00	7110.00
1994.00	7060.00
1995.00	6962.00
1996.00	7049.00
1997.00	6851.00
1998.00	6939.00
1999.00	7032.00
2000.00	6822.00
2001.00	6850.00
2002.00	6812.00
2003.00	6857.00
2004.00	6917.00
2005.00	6952.00
2006.00	6884.00
2007.00	6791.00
2008.00	6784.00
2009.00	6792.00
2010.00	6651.00
2011.00	6674.00
2012.00	6888.00
2013.00	6761.00
2014.00	6821.00
2015.00	6715.00
2016.00	6795.00
2017.00	6673.00
2018.00	6761.00
2019.00	6672.00
2020.00	6587.00
2021.00	6684.00
2022.00	6644.00
2023.00	6665.00
2024.00	6690.00
2025.00	6522.00
2026.00	6624.00
2027.00	6643.00
2028.00	6553.00
2029.00	6669.00
2030.00	6684.00
2031.00	6497.00
2032.00	6483.00
2033.00	6585.00
2034.00	6459.00
2035.00	6625.00
2036.00	6540.00
2037.00	6662.00
2038.00	6608.00
2039.00	6503.00
2040.00	6526.00
2041.00	6490.00
2042.00	6623.00
2043.00	6475.00
2044.00	6362.00
2045.00	6480.00
2046.00	6545.00
2047.00	6445.00
2048.00	 0.00
