Date:	31/01/2022		
Time:	12:42		
Sample name:	JC36_74_1		
Position:	548.000018	mm	
Sample surface:	8.484153	cm	
Tube anode:	Mo		
Tube voltage:	30	kV	
Tube current:	30	mA	
Comments	not in position		
Gain	2.150000		
peaking_time	0.300000	m-sec	
trigger_threshold	40.000000	V	
mca_bin_width	2.000000	no:	
number_mca_channels	2048.000000	no:	
gap_time	0.100000	m-sec	
trigger_peaking_time	0.050000	m-sec	
livetime	10.910156	seconds	
runtime	15.000345	seconds	
input_count_rate	122416.942579	cps	
output_count_rate	89037.152146	cps	
triggers	1725582.000000	seconds	
events_in_run	1252975.000000	seconds	
channel	content		
 1.00	 0.00
 2.00	 0.00
 3.00	 0.00
 4.00	 0.00
 5.00	 0.00
 6.00	 0.00
 7.00	 0.00
 8.00	 0.00
 9.00	 0.00
10.00	 0.00
11.00	 0.00
12.00	 0.00
13.00	 0.00
14.00	 0.00
15.00	 0.00
16.00	 0.00
17.00	 0.00
18.00	 0.00
19.00	 0.00
20.00	 0.00
21.00	 0.00
22.00	 0.00
23.00	 0.00
24.00	 0.00
25.00	 0.00
26.00	 0.00
27.00	 0.00
28.00	 0.00
29.00	 0.00
30.00	 0.00
31.00	149.00
32.00	141.00
33.00	167.00
34.00	156.00
35.00	146.00
36.00	155.00
37.00	152.00
38.00	154.00
39.00	160.00
40.00	148.00
41.00	141.00
42.00	164.00
43.00	154.00
44.00	162.00
45.00	155.00
46.00	189.00
47.00	203.00
48.00	275.00
49.00	331.00
50.00	478.00
51.00	637.00
52.00	947.00
53.00	1196.00
54.00	1604.00
55.00	2243.00
56.00	2925.00
57.00	4149.00
58.00	5682.00
59.00	8083.00
60.00	10190.00
61.00	11764.00
62.00	13009.00
63.00	13640.00
64.00	13632.00
65.00	13138.00
66.00	12786.00
67.00	12194.00
68.00	12113.00
69.00	11681.00
70.00	11606.00
71.00	11367.00
72.00	11292.00
73.00	11086.00
74.00	11197.00
75.00	11069.00
76.00	10871.00
77.00	11097.00
78.00	11017.00
79.00	10971.00
80.00	11053.00
81.00	11061.00
82.00	11152.00
83.00	11516.00
84.00	11607.00
85.00	11589.00
86.00	11844.00
87.00	11553.00
88.00	11461.00
89.00	11138.00
90.00	10672.00
91.00	10226.00
92.00	10031.00
93.00	9978.00
94.00	9800.00
95.00	9518.00
96.00	9457.00
97.00	9320.00
98.00	9126.00
99.00	9161.00
100.00	8995.00
101.00	9062.00
102.00	8816.00
103.00	8909.00
104.00	8557.00
105.00	8658.00
106.00	8368.00
107.00	8399.00
108.00	8219.00
109.00	8293.00
110.00	7882.00
111.00	8005.00
112.00	7837.00
113.00	7683.00
114.00	7636.00
115.00	7457.00
116.00	7592.00
117.00	7512.00
118.00	7371.00
119.00	7334.00
120.00	7289.00
121.00	7259.00
122.00	7022.00
123.00	7040.00
124.00	6821.00
125.00	6704.00
126.00	6760.00
127.00	6462.00
128.00	6420.00
129.00	6315.00
130.00	6268.00
131.00	6192.00
132.00	6053.00
133.00	6243.00
134.00	6030.00
135.00	6010.00
136.00	6068.00
137.00	6108.00
138.00	5980.00
139.00	6067.00
140.00	6387.00
141.00	6668.00
142.00	7021.00
143.00	7337.00
144.00	7514.00
145.00	7771.00
146.00	7870.00
147.00	7626.00
148.00	7289.00
149.00	7112.00
150.00	6970.00
151.00	6607.00
152.00	6589.00
153.00	6476.00
154.00	6214.00
155.00	6157.00
156.00	6164.00
157.00	5521.00
158.00	5571.00
159.00	5233.00
160.00	5281.00
161.00	5413.00
162.00	6098.00
163.00	7292.00
164.00	9098.00
165.00	11617.00
166.00	15239.00
167.00	18942.00
168.00	23123.00
169.00	26061.00
170.00	28369.00
171.00	28388.00
172.00	27015.00
173.00	24174.00
174.00	20387.00
175.00	16989.00
176.00	13714.00
177.00	11077.00
178.00	9227.00
179.00	8276.00
180.00	7694.00
181.00	7532.00
182.00	7964.00
183.00	8315.00
184.00	9364.00
185.00	11112.00
186.00	13094.00
187.00	15551.00
188.00	18492.00
189.00	20612.00
190.00	22339.00
191.00	22453.00
192.00	21816.00
193.00	20432.00
194.00	17629.00
195.00	14527.00
196.00	11532.00
197.00	9318.00
198.00	7513.00
199.00	5963.00
200.00	5108.00
201.00	4526.00
202.00	4406.00
203.00	4074.00
204.00	4002.00
205.00	3996.00
206.00	3988.00
207.00	3949.00
208.00	3955.00
209.00	3813.00
210.00	3856.00
211.00	3974.00
212.00	3982.00
213.00	4003.00
214.00	4197.00
215.00	4243.00
216.00	4566.00
217.00	4926.00
218.00	5359.00
219.00	5800.00
220.00	6429.00
221.00	7252.00
222.00	7707.00
223.00	8341.00
224.00	8310.00
225.00	8390.00
226.00	8107.00
227.00	7686.00
228.00	7200.00
229.00	6497.00
230.00	5712.00
231.00	5127.00
232.00	4644.00
233.00	4122.00
234.00	3784.00
235.00	3560.00
236.00	3402.00
237.00	3464.00
238.00	3308.00
239.00	3336.00
240.00	3472.00
241.00	3467.00
242.00	3750.00
243.00	3741.00
244.00	4235.00
245.00	5135.00
246.00	6298.00
247.00	8282.00
248.00	11751.00
249.00	16691.00
250.00	23327.00
251.00	32430.00
252.00	43468.00
253.00	55173.00
254.00	66718.00
255.00	77288.00
256.00	83888.00
257.00	86683.00
258.00	83891.00
259.00	77128.00
260.00	67084.00
261.00	54903.00
262.00	43254.00
263.00	32129.00
264.00	22767.00
265.00	16208.00
266.00	11632.00
267.00	8948.00
268.00	7478.00
269.00	7195.00
270.00	7404.00
271.00	8288.00
272.00	9363.00
273.00	10455.00
274.00	11299.00
275.00	11960.00
276.00	12198.00
277.00	12138.00
278.00	11121.00
279.00	10625.00
280.00	9968.00
281.00	9393.00
282.00	9233.00
283.00	9731.00
284.00	10710.00
285.00	12280.00
286.00	14049.00
287.00	15965.00
288.00	17525.00
289.00	18417.00
290.00	18409.00
291.00	17962.00
292.00	16678.00
293.00	14825.00
294.00	12492.00
295.00	10212.00
296.00	8257.00
297.00	6543.00
298.00	5355.00
299.00	4479.00
300.00	3898.00
301.00	3540.00
302.00	3388.00
303.00	3379.00
304.00	3365.00
305.00	3677.00
306.00	3908.00
307.00	4205.00
308.00	4453.00
309.00	4896.00
310.00	5496.00
311.00	6014.00
312.00	7199.00
313.00	8699.00
314.00	10879.00
315.00	14378.00
316.00	19140.00
317.00	25628.00
318.00	33582.00
319.00	43667.00
320.00	55097.00
321.00	66152.00
322.00	76855.00
323.00	84133.00
324.00	88552.00
325.00	88362.00
326.00	84473.00
327.00	76567.00
328.00	66216.00
329.00	54362.00
330.00	43199.00
331.00	32681.00
332.00	23473.00
333.00	17185.00
334.00	12050.00
335.00	8723.00
336.00	6724.00
337.00	5674.00
338.00	5164.00
339.00	5287.00
340.00	5845.00
341.00	6914.00
342.00	8120.00
343.00	10167.00
344.00	12916.00
345.00	17277.00
346.00	23726.00
347.00	33165.00
348.00	48602.00
349.00	72767.00
350.00	108718.00
351.00	161915.00
352.00	240608.00
353.00	346331.00
354.00	486114.00
355.00	656402.00
356.00	853897.00
357.00	1062133.00
358.00	1265995.00
359.00	1440990.00
360.00	1567161.00
361.00	1625009.00
362.00	1609259.00
363.00	1525534.00
364.00	1376297.00
365.00	1182012.00
366.00	974477.00
367.00	763184.00
368.00	573190.00
369.00	409664.00
370.00	282093.00
371.00	185676.00
372.00	118880.00
373.00	73927.00
374.00	45613.00
375.00	29487.00
376.00	20456.00
377.00	16591.00
378.00	15137.00
379.00	16898.00
380.00	20048.00
381.00	25363.00
382.00	33343.00
383.00	44107.00
384.00	59520.00
385.00	78347.00
386.00	101953.00
387.00	129564.00
388.00	158367.00
389.00	188850.00
390.00	214541.00
391.00	237000.00
392.00	249016.00
393.00	250042.00
394.00	242391.00
395.00	225065.00
396.00	200620.00
397.00	170773.00
398.00	139907.00
399.00	109322.00
400.00	82759.00
401.00	59868.00
402.00	41920.00
403.00	28669.00
404.00	19320.00
405.00	12387.00
406.00	8379.00
407.00	5775.00
408.00	4250.00
409.00	3435.00
410.00	2877.00
411.00	2673.00
412.00	2537.00
413.00	2592.00
414.00	2482.00
415.00	2567.00
416.00	2588.00
417.00	2544.00
418.00	2580.00
419.00	2585.00
420.00	2645.00
421.00	2658.00
422.00	2789.00
423.00	2871.00
424.00	3087.00
425.00	3248.00
426.00	3472.00
427.00	4140.00
428.00	4779.00
429.00	5821.00
430.00	7624.00
431.00	9679.00
432.00	12646.00
433.00	16178.00
434.00	20696.00
435.00	25371.00
436.00	30971.00
437.00	36161.00
438.00	41158.00
439.00	44933.00
440.00	47094.00
441.00	47887.00
442.00	47352.00
443.00	43896.00
444.00	40477.00
445.00	35545.00
446.00	30697.00
447.00	25787.00
448.00	21162.00
449.00	17658.00
450.00	14675.00
451.00	12492.00
452.00	10697.00
453.00	10031.00
454.00	9131.00
455.00	8741.00
456.00	8345.00
457.00	7808.00
458.00	7588.00
459.00	6965.00
460.00	6476.00
461.00	6175.00
462.00	5791.00
463.00	5493.00
464.00	5304.00
465.00	5280.00
466.00	5312.00
467.00	5728.00
468.00	6012.00
469.00	6458.00
470.00	6981.00
471.00	7506.00
472.00	8023.00
473.00	8662.00
474.00	9483.00
475.00	10110.00
476.00	11042.00
477.00	12088.00
478.00	12608.00
479.00	13621.00
480.00	13978.00
481.00	14546.00
482.00	14881.00
483.00	14774.00
484.00	14272.00
485.00	13614.00
486.00	12807.00
487.00	11859.00
488.00	10613.00
489.00	9681.00
490.00	8495.00
491.00	7787.00
492.00	6995.00
493.00	6481.00
494.00	6201.00
495.00	5844.00
496.00	5784.00
497.00	5432.00
498.00	5502.00
499.00	5527.00
500.00	5609.00
501.00	5943.00
502.00	5991.00
503.00	6144.00
504.00	6293.00
505.00	6540.00
506.00	6798.00
507.00	7086.00
508.00	7147.00
509.00	7507.00
510.00	7720.00
511.00	8097.00
512.00	8335.00
513.00	8847.00
514.00	8931.00
515.00	9565.00
516.00	10014.00
517.00	10463.00
518.00	11153.00
519.00	11952.00
520.00	12452.00
521.00	13759.00
522.00	14742.00
523.00	15688.00
524.00	17086.00
525.00	18049.00
526.00	19187.00
527.00	19880.00
528.00	20281.00
529.00	20401.00
530.00	20400.00
531.00	19391.00
532.00	18943.00
533.00	17280.00
534.00	16111.00
535.00	14784.00
536.00	13427.00
537.00	12613.00
538.00	11762.00
539.00	11103.00
540.00	10434.00
541.00	10109.00
542.00	9963.00
543.00	9833.00
544.00	9970.00
545.00	9775.00
546.00	10008.00
547.00	10077.00
548.00	10322.00
549.00	10691.00
550.00	10549.00
551.00	10909.00
552.00	10916.00
553.00	11151.00
554.00	11353.00
555.00	11620.00
556.00	11812.00
557.00	11986.00
558.00	12276.00
559.00	12249.00
560.00	12670.00
561.00	12963.00
562.00	13195.00
563.00	13677.00
564.00	14462.00
565.00	15013.00
566.00	16093.00
567.00	17108.00
568.00	18510.00
569.00	20146.00
570.00	22001.00
571.00	23735.00
572.00	25758.00
573.00	27355.00
574.00	28627.00
575.00	29413.00
576.00	29761.00
577.00	29373.00
578.00	28466.00
579.00	27231.00
580.00	25650.00
581.00	23477.00
582.00	21663.00
583.00	19961.00
584.00	18309.00
585.00	16457.00
586.00	15257.00
587.00	13905.00
588.00	13052.00
589.00	12435.00
590.00	12182.00
591.00	11915.00
592.00	11555.00
593.00	11796.00
594.00	11744.00
595.00	12141.00
596.00	12338.00
597.00	12203.00
598.00	12908.00
599.00	13493.00
600.00	14064.00
601.00	14499.00
602.00	15229.00
603.00	16247.00
604.00	17491.00
605.00	19291.00
606.00	22082.00
607.00	26357.00
608.00	32956.00
609.00	42728.00
610.00	56806.00
611.00	77563.00
612.00	108240.00
613.00	148089.00
614.00	200354.00
615.00	269284.00
616.00	352908.00
617.00	452853.00
618.00	563421.00
619.00	685846.00
620.00	809580.00
621.00	928634.00
622.00	1036346.00
623.00	1125512.00
624.00	1183298.00
625.00	1208086.00
626.00	1199368.00
627.00	1154273.00
628.00	1077029.00
629.00	977861.00
630.00	861157.00
631.00	738573.00
632.00	613901.00
633.00	497410.00
634.00	392416.00
635.00	302213.00
636.00	227544.00
637.00	168575.00
638.00	123171.00
639.00	89706.00
640.00	66342.00
641.00	49560.00
642.00	38423.00
643.00	31052.00
644.00	26490.00
645.00	23469.00
646.00	22428.00
647.00	21128.00
648.00	20436.00
649.00	20257.00
650.00	19915.00
651.00	19831.00
652.00	19874.00
653.00	19831.00
654.00	19930.00
655.00	20289.00
656.00	20430.00
657.00	20697.00
658.00	20799.00
659.00	20844.00
660.00	21193.00
661.00	21449.00
662.00	21849.00
663.00	22365.00
664.00	22720.00
665.00	23340.00
666.00	23567.00
667.00	24294.00
668.00	25016.00
669.00	26256.00
670.00	27519.00
671.00	28711.00
672.00	30873.00
673.00	33301.00
674.00	36507.00
675.00	41205.00
676.00	47453.00
677.00	55032.00
678.00	64131.00
679.00	75937.00
680.00	89531.00
681.00	105338.00
682.00	122791.00
683.00	139980.00
684.00	158120.00
685.00	176276.00
686.00	190518.00
687.00	202466.00
688.00	210604.00
689.00	212064.00
690.00	209630.00
691.00	202525.00
692.00	190266.00
693.00	175817.00
694.00	158200.00
695.00	139903.00
696.00	121419.00
697.00	102938.00
698.00	87360.00
699.00	72833.00
700.00	60734.00
701.00	50663.00
702.00	43303.00
703.00	37248.00
704.00	32811.00
705.00	29792.00
706.00	27826.00
707.00	26818.00
708.00	26196.00
709.00	25700.00
710.00	25844.00
711.00	26071.00
712.00	26614.00
713.00	26857.00
714.00	27308.00
715.00	27869.00
716.00	28683.00
717.00	29531.00
718.00	30393.00
719.00	31061.00
720.00	32361.00
721.00	33219.00
722.00	34102.00
723.00	35287.00
724.00	36138.00
725.00	37197.00
726.00	37907.00
727.00	38460.00
728.00	38563.00
729.00	39036.00
730.00	39223.00
731.00	38634.00
732.00	38220.00
733.00	37558.00
734.00	36343.00
735.00	35676.00
736.00	34405.00
737.00	33574.00
738.00	32928.00
739.00	31772.00
740.00	31398.00
741.00	30650.00
742.00	30351.00
743.00	29788.00
744.00	29571.00
745.00	29410.00
746.00	29542.00
747.00	29219.00
748.00	29182.00
749.00	29580.00
750.00	28922.00
751.00	29065.00
752.00	29024.00
753.00	29400.00
754.00	28863.00
755.00	28992.00
756.00	29079.00
757.00	29492.00
758.00	29383.00
759.00	29598.00
760.00	29510.00
761.00	29589.00
762.00	29870.00
763.00	30291.00
764.00	30312.00
765.00	30603.00
766.00	30745.00
767.00	31192.00
768.00	31382.00
769.00	31846.00
770.00	31974.00
771.00	32743.00
772.00	33536.00
773.00	34053.00
774.00	34934.00
775.00	35733.00
776.00	36938.00
777.00	38151.00
778.00	38615.00
779.00	40074.00
780.00	41367.00
781.00	43233.00
782.00	44614.00
783.00	45973.00
784.00	47717.00
785.00	49238.00
786.00	50267.00
787.00	51460.00
788.00	53001.00
789.00	54652.00
790.00	55598.00
791.00	56873.00
792.00	57317.00
793.00	58404.00
794.00	59070.00
795.00	59784.00
796.00	60867.00
797.00	61115.00
798.00	62119.00
799.00	61747.00
800.00	62659.00
801.00	63604.00
802.00	63992.00
803.00	64629.00
804.00	65451.00
805.00	66872.00
806.00	68721.00
807.00	70324.00
808.00	73463.00
809.00	75641.00
810.00	79827.00
811.00	83569.00
812.00	88415.00
813.00	92847.00
814.00	97308.00
815.00	101784.00
816.00	105319.00
817.00	108249.00
818.00	110252.00
819.00	111598.00
820.00	111074.00
821.00	109292.00
822.00	105644.00
823.00	102178.00
824.00	97744.00
825.00	91987.00
826.00	86506.00
827.00	80891.00
828.00	75449.00
829.00	70631.00
830.00	66181.00
831.00	63085.00
832.00	59960.00
833.00	58010.00
834.00	55815.00
835.00	54760.00
836.00	54564.00
837.00	53829.00
838.00	53704.00
839.00	53735.00
840.00	53996.00
841.00	54149.00
842.00	53409.00
843.00	53823.00
844.00	54117.00
845.00	54402.00
846.00	53816.00
847.00	53474.00
848.00	53173.00
849.00	52856.00
850.00	52278.00
851.00	52212.00
852.00	51765.00
853.00	51773.00
854.00	51640.00
855.00	51485.00
856.00	51135.00
857.00	51597.00
858.00	51019.00
859.00	51396.00
860.00	51432.00
861.00	51081.00
862.00	50904.00
863.00	51359.00
864.00	51222.00
865.00	51862.00
866.00	51934.00
867.00	52205.00
868.00	52390.00
869.00	52645.00
870.00	52795.00
871.00	52690.00
872.00	53126.00
873.00	52977.00
874.00	53488.00
875.00	53415.00
876.00	53590.00
877.00	53865.00
878.00	53718.00
879.00	53805.00
880.00	54480.00
881.00	54881.00
882.00	55065.00
883.00	55223.00
884.00	56099.00
885.00	56411.00
886.00	56637.00
887.00	56699.00
888.00	57635.00
889.00	58343.00
890.00	59031.00
891.00	59795.00
892.00	59966.00
893.00	61210.00
894.00	61996.00
895.00	62998.00
896.00	63690.00
897.00	64709.00
898.00	65788.00
899.00	66501.00
900.00	67753.00
901.00	68211.00
902.00	69324.00
903.00	70115.00
904.00	70651.00
905.00	71564.00
906.00	72606.00
907.00	72907.00
908.00	73974.00
909.00	74425.00
910.00	74630.00
911.00	75812.00
912.00	76271.00
913.00	76559.00
914.00	77008.00
915.00	77164.00
916.00	77872.00
917.00	78477.00
918.00	78733.00
919.00	78373.00
920.00	79293.00
921.00	79656.00
922.00	80405.00
923.00	81227.00
924.00	81205.00
925.00	81915.00
926.00	82392.00
927.00	83215.00
928.00	83552.00
929.00	84426.00
930.00	85581.00
931.00	86800.00
932.00	88169.00
933.00	89930.00
934.00	91300.00
935.00	93584.00
936.00	95277.00
937.00	97607.00
938.00	99456.00
939.00	101836.00
940.00	103637.00
941.00	104837.00
942.00	105423.00
943.00	105808.00
944.00	105943.00
945.00	105053.00
946.00	104492.00
947.00	103002.00
948.00	100410.00
949.00	99218.00
950.00	96202.00
951.00	94129.00
952.00	91455.00
953.00	89919.00
954.00	87465.00
955.00	85420.00
956.00	84218.00
957.00	82580.00
958.00	82201.00
959.00	80935.00
960.00	80610.00
961.00	80145.00
962.00	80409.00
963.00	80025.00
964.00	80464.00
965.00	80572.00
966.00	80719.00
967.00	81112.00
968.00	81832.00
969.00	81426.00
970.00	82317.00
971.00	82141.00
972.00	82446.00
973.00	81894.00
974.00	81649.00
975.00	80604.00
976.00	80065.00
977.00	78954.00
978.00	78030.00
979.00	76982.00
980.00	76248.00
981.00	74892.00
982.00	73783.00
983.00	73689.00
984.00	72608.00
985.00	72248.00
986.00	71506.00
987.00	71339.00
988.00	70602.00
989.00	70971.00
990.00	70132.00
991.00	70140.00
992.00	69869.00
993.00	70121.00
994.00	69772.00
995.00	70073.00
996.00	69419.00
997.00	69185.00
998.00	69435.00
999.00	69112.00
1000.00	68836.00
1001.00	69426.00
1002.00	68965.00
1003.00	69438.00
1004.00	69456.00
1005.00	69365.00
1006.00	69363.00
1007.00	69152.00
1008.00	69278.00
1009.00	69154.00
1010.00	70088.00
1011.00	69491.00
1012.00	70405.00
1013.00	69683.00
1014.00	70249.00
1015.00	70219.00
1016.00	70075.00
1017.00	70100.00
1018.00	70374.00
1019.00	71244.00
1020.00	70688.00
1021.00	70947.00
1022.00	71400.00
1023.00	71195.00
1024.00	72144.00
1025.00	72327.00
1026.00	72606.00
1027.00	72783.00
1028.00	72910.00
1029.00	73090.00
1030.00	72941.00
1031.00	72489.00
1032.00	72979.00
1033.00	72659.00
1034.00	72535.00
1035.00	72766.00
1036.00	72503.00
1037.00	72961.00
1038.00	72999.00
1039.00	72908.00
1040.00	72640.00
1041.00	72341.00
1042.00	72405.00
1043.00	72998.00
1044.00	72827.00
1045.00	73496.00
1046.00	73618.00
1047.00	73880.00
1048.00	73929.00
1049.00	73661.00
1050.00	73720.00
1051.00	74697.00
1052.00	74334.00
1053.00	74924.00
1054.00	75326.00
1055.00	75588.00
1056.00	75953.00
1057.00	76466.00
1058.00	75801.00
1059.00	76057.00
1060.00	76665.00
1061.00	76670.00
1062.00	77091.00
1063.00	77214.00
1064.00	77477.00
1065.00	77934.00
1066.00	77930.00
1067.00	78032.00
1068.00	78228.00
1069.00	78330.00
1070.00	78335.00
1071.00	78761.00
1072.00	78456.00
1073.00	78815.00
1074.00	78820.00
1075.00	78757.00
1076.00	78894.00
1077.00	78485.00
1078.00	78677.00
1079.00	78261.00
1080.00	78488.00
1081.00	78455.00
1082.00	79095.00
1083.00	78483.00
1084.00	79062.00
1085.00	78907.00
1086.00	79546.00
1087.00	79581.00
1088.00	79881.00
1089.00	80404.00
1090.00	80111.00
1091.00	81121.00
1092.00	81970.00
1093.00	82274.00
1094.00	82582.00
1095.00	82505.00
1096.00	83323.00
1097.00	83110.00
1098.00	84652.00
1099.00	84440.00
1100.00	84134.00
1101.00	85160.00
1102.00	84548.00
1103.00	85204.00
1104.00	84905.00
1105.00	84778.00
1106.00	84122.00
1107.00	84124.00
1108.00	84151.00
1109.00	84254.00
1110.00	83936.00
1111.00	83273.00
1112.00	82516.00
1113.00	82809.00
1114.00	82213.00
1115.00	82556.00
1116.00	82224.00
1117.00	82297.00
1118.00	82371.00
1119.00	82801.00
1120.00	82314.00
1121.00	82914.00
1122.00	82479.00
1123.00	82569.00
1124.00	82939.00
1125.00	83095.00
1126.00	83483.00
1127.00	82877.00
1128.00	82671.00
1129.00	83779.00
1130.00	83056.00
1131.00	83623.00
1132.00	83430.00
1133.00	84160.00
1134.00	83547.00
1135.00	84234.00
1136.00	84140.00
1137.00	84136.00
1138.00	84219.00
1139.00	83761.00
1140.00	83674.00
1141.00	84170.00
1142.00	83915.00
1143.00	84122.00
1144.00	84658.00
1145.00	84801.00
1146.00	85295.00
1147.00	86153.00
1148.00	86537.00
1149.00	87422.00
1150.00	87838.00
1151.00	89128.00
1152.00	89941.00
1153.00	91364.00
1154.00	93095.00
1155.00	94463.00
1156.00	95309.00
1157.00	97320.00
1158.00	97898.00
1159.00	98664.00
1160.00	98849.00
1161.00	99505.00
1162.00	99836.00
1163.00	99117.00
1164.00	99284.00
1165.00	97961.00
1166.00	96984.00
1167.00	96338.00
1168.00	95002.00
1169.00	93568.00
1170.00	92552.00
1171.00	91247.00
1172.00	90220.00
1173.00	88951.00
1174.00	88143.00
1175.00	86968.00
1176.00	85844.00
1177.00	85446.00
1178.00	84899.00
1179.00	84055.00
1180.00	84098.00
1181.00	84061.00
1182.00	83484.00
1183.00	83621.00
1184.00	83549.00
1185.00	82539.00
1186.00	82732.00
1187.00	82929.00
1188.00	83331.00
1189.00	82992.00
1190.00	82958.00
1191.00	83325.00
1192.00	83401.00
1193.00	83117.00
1194.00	84060.00
1195.00	83967.00
1196.00	83821.00
1197.00	83519.00
1198.00	84632.00
1199.00	83980.00
1200.00	84388.00
1201.00	84676.00
1202.00	85050.00
1203.00	85225.00
1204.00	84706.00
1205.00	84693.00
1206.00	85337.00
1207.00	85293.00
1208.00	85060.00
1209.00	85879.00
1210.00	85575.00
1211.00	85335.00
1212.00	85197.00
1213.00	86112.00
1214.00	86210.00
1215.00	86404.00
1216.00	85838.00
1217.00	86148.00
1218.00	86278.00
1219.00	86787.00
1220.00	86859.00
1221.00	87056.00
1222.00	87175.00
1223.00	87661.00
1224.00	87754.00
1225.00	87947.00
1226.00	87995.00
1227.00	88844.00
1228.00	87932.00
1229.00	88507.00
1230.00	88634.00
1231.00	88932.00
1232.00	88659.00
1233.00	89306.00
1234.00	88041.00
1235.00	88743.00
1236.00	89090.00
1237.00	88634.00
1238.00	88780.00
1239.00	89008.00
1240.00	88689.00
1241.00	88889.00
1242.00	89093.00
1243.00	89127.00
1244.00	89782.00
1245.00	88646.00
1246.00	89142.00
1247.00	88555.00
1248.00	89319.00
1249.00	89323.00
1250.00	89177.00
1251.00	88456.00
1252.00	89691.00
1253.00	89144.00
1254.00	89575.00
1255.00	89472.00
1256.00	89132.00
1257.00	89678.00
1258.00	89279.00
1259.00	89629.00
1260.00	89875.00
1261.00	89428.00
1262.00	89837.00
1263.00	89831.00
1264.00	89704.00
1265.00	89920.00
1266.00	89908.00
1267.00	90275.00
1268.00	89933.00
1269.00	88934.00
1270.00	89808.00
1271.00	90757.00
1272.00	89897.00
1273.00	89439.00
1274.00	90253.00
1275.00	89975.00
1276.00	90660.00
1277.00	89978.00
1278.00	90788.00
1279.00	90924.00
1280.00	90487.00
1281.00	90912.00
1282.00	91288.00
1283.00	91831.00
1284.00	92066.00
1285.00	93035.00
1286.00	93158.00
1287.00	93271.00
1288.00	94548.00
1289.00	95106.00
1290.00	96034.00
1291.00	96993.00
1292.00	98314.00
1293.00	99271.00
1294.00	100299.00
1295.00	101849.00
1296.00	102796.00
1297.00	103365.00
1298.00	105298.00
1299.00	105727.00
1300.00	106751.00
1301.00	107657.00
1302.00	107525.00
1303.00	108483.00
1304.00	108829.00
1305.00	107795.00
1306.00	107792.00
1307.00	107549.00
1308.00	106874.00
1309.00	105667.00
1310.00	105064.00
1311.00	104446.00
1312.00	102940.00
1313.00	101650.00
1314.00	100685.00
1315.00	99363.00
1316.00	98764.00
1317.00	97754.00
1318.00	96821.00
1319.00	95968.00
1320.00	94961.00
1321.00	94265.00
1322.00	94606.00
1323.00	93296.00
1324.00	94020.00
1325.00	93049.00
1326.00	93147.00
1327.00	93055.00
1328.00	92906.00
1329.00	92850.00
1330.00	92587.00
1331.00	93580.00
1332.00	92684.00
1333.00	92992.00
1334.00	92547.00
1335.00	92963.00
1336.00	92912.00
1337.00	93341.00
1338.00	93355.00
1339.00	92927.00
1340.00	92817.00
1341.00	94141.00
1342.00	93253.00
1343.00	93272.00
1344.00	93133.00
1345.00	93358.00
1346.00	93814.00
1347.00	93669.00
1348.00	93694.00
1349.00	93955.00
1350.00	94561.00
1351.00	94927.00
1352.00	94839.00
1353.00	95909.00
1354.00	95844.00
1355.00	96704.00
1356.00	98156.00
1357.00	99251.00
1358.00	101156.00
1359.00	103299.00
1360.00	105611.00
1361.00	108810.00
1362.00	112255.00
1363.00	116582.00
1364.00	121381.00
1365.00	126948.00
1366.00	133248.00
1367.00	140402.00
1368.00	147696.00
1369.00	155196.00
1370.00	163378.00
1371.00	172480.00
1372.00	180789.00
1373.00	188774.00
1374.00	195911.00
1375.00	202825.00
1376.00	209620.00
1377.00	213126.00
1378.00	215178.00
1379.00	218013.00
1380.00	217113.00
1381.00	216434.00
1382.00	211953.00
1383.00	208280.00
1384.00	202860.00
1385.00	194262.00
1386.00	187010.00
1387.00	178972.00
1388.00	169971.00
1389.00	160700.00
1390.00	152497.00
1391.00	143957.00
1392.00	137231.00
1393.00	129022.00
1394.00	122795.00
1395.00	117215.00
1396.00	111495.00
1397.00	107265.00
1398.00	103547.00
1399.00	100709.00
1400.00	98111.00
1401.00	96329.00
1402.00	95167.00
1403.00	93637.00
1404.00	92530.00
1405.00	92294.00
1406.00	91400.00
1407.00	90305.00
1408.00	90606.00
1409.00	90682.00
1410.00	90628.00
1411.00	90298.00
1412.00	90332.00
1413.00	90261.00
1414.00	89866.00
1415.00	90073.00
1416.00	90296.00
1417.00	89782.00
1418.00	90777.00
1419.00	90217.00
1420.00	90122.00
1421.00	90010.00
1422.00	90251.00
1423.00	89539.00
1424.00	89434.00
1425.00	89889.00
1426.00	90256.00
1427.00	90127.00
1428.00	90341.00
1429.00	89927.00
1430.00	89805.00
1431.00	89283.00
1432.00	89708.00
1433.00	90109.00
1434.00	90092.00
1435.00	90402.00
1436.00	90366.00
1437.00	90654.00
1438.00	91141.00
1439.00	90569.00
1440.00	90764.00
1441.00	91099.00
1442.00	91278.00
1443.00	91440.00
1444.00	91910.00
1445.00	92122.00
1446.00	91991.00
1447.00	92949.00
1448.00	93202.00
1449.00	93789.00
1450.00	94033.00
1451.00	94408.00
1452.00	94745.00
1453.00	95396.00
1454.00	95321.00
1455.00	95738.00
1456.00	96547.00
1457.00	95595.00
1458.00	96085.00
1459.00	95959.00
1460.00	97078.00
1461.00	95757.00
1462.00	95730.00
1463.00	95206.00
1464.00	95389.00
1465.00	94893.00
1466.00	93894.00
1467.00	94166.00
1468.00	94735.00
1469.00	94014.00
1470.00	93293.00
1471.00	93017.00
1472.00	92995.00
1473.00	92664.00
1474.00	92801.00
1475.00	92823.00
1476.00	92789.00
1477.00	92670.00
1478.00	93084.00
1479.00	92812.00
1480.00	93111.00
1481.00	92633.00
1482.00	92645.00
1483.00	92891.00
1484.00	93764.00
1485.00	92970.00
1486.00	93340.00
1487.00	93383.00
1488.00	93358.00
1489.00	93220.00
1490.00	93760.00
1491.00	94023.00
1492.00	94276.00
1493.00	93599.00
1494.00	93590.00
1495.00	94190.00
1496.00	94083.00
1497.00	94836.00
1498.00	94839.00
1499.00	95492.00
1500.00	95079.00
1501.00	95383.00
1502.00	95965.00
1503.00	95831.00
1504.00	96008.00
1505.00	96095.00
1506.00	96566.00
1507.00	97086.00
1508.00	96309.00
1509.00	97932.00
1510.00	97783.00
1511.00	98334.00
1512.00	98664.00
1513.00	99434.00
1514.00	100061.00
1515.00	100917.00
1516.00	102003.00
1517.00	102365.00
1518.00	103820.00
1519.00	104398.00
1520.00	106482.00
1521.00	107651.00
1522.00	109583.00
1523.00	110997.00
1524.00	113062.00
1525.00	115720.00
1526.00	117750.00
1527.00	119761.00
1528.00	121701.00
1529.00	124751.00
1530.00	127309.00
1531.00	129959.00
1532.00	132982.00
1533.00	134792.00
1534.00	137146.00
1535.00	139145.00
1536.00	141243.00
1537.00	143032.00
1538.00	145099.00
1539.00	146616.00
1540.00	147222.00
1541.00	147372.00
1542.00	147979.00
1543.00	147385.00
1544.00	147377.00
1545.00	146730.00
1546.00	145794.00
1547.00	144610.00
1548.00	142313.00
1549.00	141660.00
1550.00	140461.00
1551.00	139182.00
1552.00	137857.00
1553.00	137691.00
1554.00	136701.00
1555.00	135413.00
1556.00	135305.00
1557.00	136329.00
1558.00	136302.00
1559.00	136261.00
1560.00	138355.00
1561.00	139720.00
1562.00	141704.00
1563.00	142657.00
1564.00	145032.00
1565.00	147190.00
1566.00	149322.00
1567.00	152296.00
1568.00	155579.00
1569.00	158776.00
1570.00	162335.00
1571.00	165700.00
1572.00	169785.00
1573.00	174372.00
1574.00	178374.00
1575.00	182920.00
1576.00	187236.00
1577.00	192238.00
1578.00	196882.00
1579.00	202611.00
1580.00	208577.00
1581.00	214535.00
1582.00	220756.00
1583.00	226434.00
1584.00	233054.00
1585.00	238373.00
1586.00	244935.00
1587.00	252895.00
1588.00	258910.00
1589.00	266270.00
1590.00	272963.00
1591.00	278885.00
1592.00	284916.00
1593.00	290896.00
1594.00	296522.00
1595.00	302988.00
1596.00	308886.00
1597.00	314408.00
1598.00	318650.00
1599.00	324427.00
1600.00	326809.00
1601.00	331067.00
1602.00	333955.00
1603.00	338017.00
1604.00	339882.00
1605.00	340882.00
1606.00	341768.00
1607.00	343190.00
1608.00	343243.00
1609.00	342163.00
1610.00	341540.00
1611.00	340822.00
1612.00	338573.00
1613.00	336925.00
1614.00	333333.00
1615.00	329106.00
1616.00	325976.00
1617.00	321122.00
1618.00	317006.00
1619.00	313165.00
1620.00	306688.00
1621.00	299934.00
1622.00	295109.00
1623.00	289744.00
1624.00	283418.00
1625.00	275988.00
1626.00	270133.00
1627.00	263787.00
1628.00	255905.00
1629.00	250599.00
1630.00	243575.00
1631.00	237542.00
1632.00	229449.00
1633.00	223205.00
1634.00	217276.00
1635.00	210840.00
1636.00	203918.00
1637.00	198559.00
1638.00	193133.00
1639.00	186897.00
1640.00	182464.00
1641.00	176669.00
1642.00	172096.00
1643.00	166009.00
1644.00	161826.00
1645.00	156738.00
1646.00	153578.00
1647.00	148761.00
1648.00	145183.00
1649.00	141747.00
1650.00	137634.00
1651.00	134504.00
1652.00	130847.00
1653.00	127869.00
1654.00	125707.00
1655.00	123165.00
1656.00	121196.00
1657.00	118430.00
1658.00	116089.00
1659.00	113457.00
1660.00	111663.00
1661.00	110112.00
1662.00	107939.00
1663.00	106645.00
1664.00	105134.00
1665.00	104093.00
1666.00	102834.00
1667.00	101947.00
1668.00	100994.00
1669.00	101155.00
1670.00	99463.00
1671.00	99324.00
1672.00	99644.00
1673.00	100082.00
1674.00	100340.00
1675.00	101967.00
1676.00	103050.00
1677.00	105538.00
1678.00	107716.00
1679.00	110852.00
1680.00	115020.00
1681.00	119599.00
1682.00	124652.00
1683.00	130581.00
1684.00	137312.00
1685.00	144239.00
1686.00	152167.00
1687.00	161621.00
1688.00	170516.00
1689.00	179920.00
1690.00	189827.00
1691.00	199829.00
1692.00	209630.00
1693.00	218453.00
1694.00	228607.00
1695.00	236277.00
1696.00	244150.00
1697.00	250713.00
1698.00	256862.00
1699.00	261733.00
1700.00	264242.00
1701.00	265289.00
1702.00	265632.00
1703.00	263325.00
1704.00	259826.00
1705.00	253104.00
1706.00	247231.00
1707.00	238875.00
1708.00	230041.00
1709.00	218512.00
1710.00	209016.00
1711.00	196690.00
1712.00	185935.00
1713.00	174767.00
1714.00	163806.00
1715.00	152779.00
1716.00	142619.00
1717.00	133200.00
1718.00	124155.00
1719.00	116941.00
1720.00	109765.00
1721.00	103590.00
1722.00	98142.00
1723.00	94336.00
1724.00	90891.00
1725.00	87756.00
1726.00	84656.00
1727.00	82685.00
1728.00	80759.00
1729.00	79248.00
1730.00	78593.00
1731.00	77512.00
1732.00	76936.00
1733.00	76016.00
1734.00	75646.00
1735.00	75661.00
1736.00	75027.00
1737.00	74956.00
1738.00	74670.00
1739.00	74546.00
1740.00	74945.00
1741.00	74997.00
1742.00	75287.00
1743.00	75074.00
1744.00	75409.00
1745.00	75570.00
1746.00	76427.00
1747.00	75717.00
1748.00	76342.00
1749.00	76536.00
1750.00	77071.00
1751.00	77589.00
1752.00	77783.00
1753.00	78090.00
1754.00	78866.00
1755.00	79223.00
1756.00	79547.00
1757.00	79694.00
1758.00	80319.00
1759.00	81149.00
1760.00	82050.00
1761.00	82577.00
1762.00	83024.00
1763.00	83579.00
1764.00	84748.00
1765.00	85229.00
1766.00	86028.00
1767.00	87427.00
1768.00	87934.00
1769.00	88440.00
1770.00	89360.00
1771.00	90498.00
1772.00	91327.00
1773.00	92527.00
1774.00	92998.00
1775.00	93971.00
1776.00	94352.00
1777.00	95730.00
1778.00	96884.00
1779.00	97154.00
1780.00	98330.00
1781.00	99164.00
1782.00	99731.00
1783.00	100304.00
1784.00	101134.00
1785.00	101100.00
1786.00	101940.00
1787.00	102781.00
1788.00	102646.00
1789.00	102579.00
1790.00	102907.00
1791.00	103360.00
1792.00	103104.00
1793.00	103701.00
1794.00	103520.00
1795.00	103458.00
1796.00	102962.00
1797.00	103008.00
1798.00	102492.00
1799.00	102238.00
1800.00	102267.00
1801.00	100900.00
1802.00	100717.00
1803.00	99948.00
1804.00	98489.00
1805.00	97892.00
1806.00	97423.00
1807.00	95681.00
1808.00	95423.00
1809.00	93771.00
1810.00	93089.00
1811.00	92031.00
1812.00	91383.00
1813.00	89472.00
1814.00	87885.00
1815.00	87519.00
1816.00	86222.00
1817.00	84737.00
1818.00	83428.00
1819.00	82675.00
1820.00	81240.00
1821.00	79547.00
1822.00	78804.00
1823.00	77305.00
1824.00	76204.00
1825.00	75112.00
1826.00	73880.00
1827.00	71958.00
1828.00	71627.00
1829.00	70308.00
1830.00	68862.00
1831.00	67795.00
1832.00	66784.00
1833.00	65411.00
1834.00	64791.00
1835.00	63431.00
1836.00	62225.00
1837.00	61569.00
1838.00	60240.00
1839.00	59712.00
1840.00	58417.00
1841.00	57791.00
1842.00	57111.00
1843.00	56498.00
1844.00	55830.00
1845.00	54668.00
1846.00	54242.00
1847.00	53153.00
1848.00	52850.00
1849.00	51976.00
1850.00	51101.00
1851.00	50508.00
1852.00	50045.00
1853.00	48781.00
1854.00	48791.00
1855.00	47977.00
1856.00	47419.00
1857.00	46884.00
1858.00	46942.00
1859.00	45677.00
1860.00	44719.00
1861.00	45079.00
1862.00	44435.00
1863.00	43772.00
1864.00	43121.00
1865.00	42783.00
1866.00	42832.00
1867.00	42337.00
1868.00	42105.00
1869.00	41522.00
1870.00	41176.00
1871.00	40529.00
1872.00	40671.00
1873.00	40080.00
1874.00	39693.00
1875.00	39894.00
1876.00	39325.00
1877.00	39675.00
1878.00	39201.00
1879.00	38912.00
1880.00	38619.00
1881.00	39032.00
1882.00	38843.00
1883.00	38688.00
1884.00	38038.00
1885.00	38482.00
1886.00	38440.00
1887.00	38231.00
1888.00	38247.00
1889.00	38402.00
1890.00	39337.00
1891.00	39630.00
1892.00	40107.00
1893.00	40321.00
1894.00	41425.00
1895.00	42247.00
1896.00	42898.00
1897.00	44498.00
1898.00	45523.00
1899.00	46845.00
1900.00	47607.00
1901.00	49605.00
1902.00	51213.00
1903.00	52213.00
1904.00	54098.00
1905.00	55156.00
1906.00	56080.00
1907.00	57011.00
1908.00	57843.00
1909.00	58482.00
1910.00	59294.00
1911.00	58836.00
1912.00	58871.00
1913.00	58391.00
1914.00	57347.00
1915.00	56652.00
1916.00	56018.00
1917.00	54093.00
1918.00	52651.00
1919.00	50823.00
1920.00	49286.00
1921.00	47562.00
1922.00	45876.00
1923.00	44230.00
1924.00	42782.00
1925.00	41382.00
1926.00	40394.00
1927.00	38925.00
1928.00	37935.00
1929.00	37426.00
1930.00	36473.00
1931.00	36379.00
1932.00	35592.00
1933.00	35000.00
1934.00	34754.00
1935.00	34506.00
1936.00	34478.00
1937.00	34449.00
1938.00	34394.00
1939.00	34397.00
1940.00	34030.00
1941.00	34477.00
1942.00	34017.00
1943.00	34391.00
1944.00	33978.00
1945.00	34109.00
1946.00	33751.00
1947.00	33477.00
1948.00	33337.00
1949.00	33202.00
1950.00	32656.00
1951.00	32964.00
1952.00	31558.00
1953.00	31664.00
1954.00	31148.00
1955.00	30860.00
1956.00	30564.00
1957.00	30152.00
1958.00	29970.00
1959.00	29193.00
1960.00	29064.00
1961.00	28730.00
1962.00	28171.00
1963.00	27960.00
1964.00	27867.00
1965.00	27952.00
1966.00	27402.00
1967.00	27301.00
1968.00	27430.00
1969.00	27071.00
1970.00	27164.00
1971.00	27213.00
1972.00	27219.00
1973.00	27012.00
1974.00	27024.00
1975.00	27075.00
1976.00	26794.00
1977.00	26723.00
1978.00	26836.00
1979.00	26790.00
1980.00	26728.00
1981.00	26767.00
1982.00	26676.00
1983.00	26538.00
1984.00	26633.00
1985.00	26468.00
1986.00	26655.00
1987.00	26425.00
1988.00	26495.00
1989.00	26739.00
1990.00	26508.00
1991.00	26410.00
1992.00	26289.00
1993.00	26395.00
1994.00	26324.00
1995.00	26116.00
1996.00	26335.00
1997.00	26240.00
1998.00	26015.00
1999.00	26505.00
2000.00	26020.00
2001.00	25751.00
2002.00	26089.00
2003.00	26146.00
2004.00	26089.00
2005.00	25725.00
2006.00	25908.00
2007.00	25885.00
2008.00	26085.00
2009.00	25714.00
2010.00	25830.00
2011.00	25895.00
2012.00	25739.00
2013.00	25835.00
2014.00	25362.00
2015.00	25632.00
2016.00	25603.00
2017.00	25947.00
2018.00	25411.00
2019.00	25548.00
2020.00	25232.00
2021.00	25352.00
2022.00	25231.00
2023.00	25342.00
2024.00	25701.00
2025.00	25376.00
2026.00	24862.00
2027.00	25137.00
2028.00	25047.00
2029.00	24927.00
2030.00	25184.00
2031.00	25111.00
2032.00	25373.00
2033.00	25157.00
2034.00	24974.00
2035.00	24886.00
2036.00	25049.00
2037.00	24869.00
2038.00	25033.00
2039.00	25049.00
2040.00	24878.00
2041.00	24754.00
2042.00	24375.00
2043.00	24786.00
2044.00	24477.00
2045.00	24587.00
2046.00	24584.00
2047.00	24555.00
2048.00	 0.00
