Date:	31/01/2022		
Time:	16:12		
Sample name:	JC36_74_3		
Position:	196.000018	mm	
Sample surface:	7.657784	cm	
Tube anode:	Mo		
Tube voltage:	30	kV	
Tube current:	30	mA	
Comments	not in position		
Gain	2.150000		
peaking_time	0.300000	m-sec	
trigger_threshold	40.000000	V	
mca_bin_width	2.000000	no:	
number_mca_channels	2048.000000	no:	
gap_time	0.100000	m-sec	
trigger_peaking_time	0.050000	m-sec	
livetime	12.406605	seconds	
runtime	15.000126	seconds	
input_count_rate	92432.535880	cps	
output_count_rate	76450.957812	cps	
triggers	1334963.000000	seconds	
events_in_run	1103758.000000	seconds	
channel	content		
 1.00	 0.00
 2.00	 0.00
 3.00	 0.00
 4.00	 0.00
 5.00	 0.00
 6.00	 0.00
 7.00	 0.00
 8.00	 0.00
 9.00	 0.00
10.00	 0.00
11.00	 0.00
12.00	 0.00
13.00	 0.00
14.00	 0.00
15.00	 0.00
16.00	 0.00
17.00	 0.00
18.00	 0.00
19.00	 0.00
20.00	 0.00
21.00	 0.00
22.00	 0.00
23.00	 0.00
24.00	 0.00
25.00	 0.00
26.00	 0.00
27.00	 0.00
28.00	 0.00
29.00	 0.00
30.00	 0.00
31.00	51.00
32.00	40.00
33.00	40.00
34.00	50.00
35.00	44.00
36.00	42.00
37.00	38.00
38.00	51.00
39.00	44.00
40.00	44.00
41.00	41.00
42.00	56.00
43.00	52.00
44.00	45.00
45.00	47.00
46.00	48.00
47.00	60.00
48.00	62.00
49.00	89.00
50.00	121.00
51.00	191.00
52.00	256.00
53.00	323.00
54.00	413.00
55.00	573.00
56.00	732.00
57.00	1042.00
58.00	1518.00
59.00	2116.00
60.00	2613.00
61.00	3206.00
62.00	3445.00
63.00	3501.00
64.00	3567.00
65.00	3442.00
66.00	3282.00
67.00	3171.00
68.00	3186.00
69.00	3018.00
70.00	2979.00
71.00	2892.00
72.00	2921.00
73.00	3017.00
74.00	2884.00
75.00	2873.00
76.00	2934.00
77.00	2897.00
78.00	2829.00
79.00	2848.00
80.00	2850.00
81.00	2842.00
82.00	2805.00
83.00	2965.00
84.00	3137.00
85.00	2997.00
86.00	3105.00
87.00	2980.00
88.00	3007.00
89.00	2846.00
90.00	2763.00
91.00	2643.00
92.00	2498.00
93.00	2628.00
94.00	2542.00
95.00	2474.00
96.00	2465.00
97.00	2455.00
98.00	2429.00
99.00	2445.00
100.00	2386.00
101.00	2357.00
102.00	2284.00
103.00	2241.00
104.00	2226.00
105.00	2302.00
106.00	2312.00
107.00	2236.00
108.00	2204.00
109.00	2074.00
110.00	2154.00
111.00	2138.00
112.00	2103.00
113.00	2061.00
114.00	2060.00
115.00	2009.00
116.00	2000.00
117.00	1918.00
118.00	1905.00
119.00	1992.00
120.00	1944.00
121.00	1840.00
122.00	1817.00
123.00	1883.00
124.00	1787.00
125.00	1781.00
126.00	1817.00
127.00	1717.00
128.00	1732.00
129.00	1662.00
130.00	1675.00
131.00	1716.00
132.00	1675.00
133.00	1553.00
134.00	1585.00
135.00	1539.00
136.00	1556.00
137.00	1595.00
138.00	1607.00
139.00	1668.00
140.00	1691.00
141.00	1822.00
142.00	1914.00
143.00	2013.00
144.00	2018.00
145.00	2018.00
146.00	2161.00
147.00	2224.00
148.00	2033.00
149.00	1956.00
150.00	1937.00
151.00	1816.00
152.00	1709.00
153.00	1794.00
154.00	1754.00
155.00	1657.00
156.00	1724.00
157.00	1563.00
158.00	1519.00
159.00	1386.00
160.00	1410.00
161.00	1498.00
162.00	1742.00
163.00	2040.00
164.00	2580.00
165.00	3333.00
166.00	4393.00
167.00	5506.00
168.00	6816.00
169.00	7657.00
170.00	8203.00
171.00	8464.00
172.00	7908.00
173.00	7078.00
174.00	6160.00
175.00	4937.00
176.00	3980.00
177.00	3219.00
178.00	2679.00
179.00	2401.00
180.00	2132.00
181.00	2174.00
182.00	2331.00
183.00	2397.00
184.00	2736.00
185.00	3369.00
186.00	4014.00
187.00	4825.00
188.00	5565.00
189.00	6446.00
190.00	7028.00
191.00	7046.00
192.00	6957.00
193.00	6360.00
194.00	5352.00
195.00	4439.00
196.00	3605.00
197.00	2821.00
198.00	2185.00
199.00	1729.00
200.00	1497.00
201.00	1277.00
202.00	1184.00
203.00	1176.00
204.00	1110.00
205.00	1058.00
206.00	1092.00
207.00	1073.00
208.00	1110.00
209.00	1061.00
210.00	1164.00
211.00	1095.00
212.00	1114.00
213.00	1100.00
214.00	1185.00
215.00	1245.00
216.00	1297.00
217.00	1437.00
218.00	1537.00
219.00	1728.00
220.00	1818.00
221.00	2060.00
222.00	2288.00
223.00	2419.00
224.00	2481.00
225.00	2546.00
226.00	2350.00
227.00	2289.00
228.00	2082.00
229.00	1837.00
230.00	1644.00
231.00	1397.00
232.00	1288.00
233.00	1124.00
234.00	1069.00
235.00	964.00
236.00	951.00
237.00	921.00
238.00	938.00
239.00	942.00
240.00	982.00
241.00	972.00
242.00	1031.00
243.00	1111.00
244.00	1146.00
245.00	1338.00
246.00	1635.00
247.00	2171.00
248.00	3136.00
249.00	4233.00
250.00	6042.00
251.00	8485.00
252.00	11040.00
253.00	14102.00
254.00	17122.00
255.00	19564.00
256.00	21264.00
257.00	21895.00
258.00	21486.00
259.00	19757.00
260.00	16887.00
261.00	13963.00
262.00	11084.00
263.00	8175.00
264.00	5871.00
265.00	4226.00
266.00	3011.00
267.00	2276.00
268.00	1934.00
269.00	1950.00
270.00	2010.00
271.00	2221.00
272.00	2458.00
273.00	2742.00
274.00	2969.00
275.00	3145.00
276.00	3198.00
277.00	3137.00
278.00	2846.00
279.00	2755.00
280.00	2706.00
281.00	2639.00
282.00	2558.00
283.00	2851.00
284.00	3207.00
285.00	3874.00
286.00	4470.00
287.00	5186.00
288.00	5554.00
289.00	6064.00
290.00	5973.00
291.00	5767.00
292.00	5286.00
293.00	4649.00
294.00	3841.00
295.00	3206.00
296.00	2582.00
297.00	2012.00
298.00	1595.00
299.00	1369.00
300.00	1220.00
301.00	1106.00
302.00	1005.00
303.00	1070.00
304.00	983.00
305.00	1072.00
306.00	1158.00
307.00	1241.00
308.00	1414.00
309.00	1493.00
310.00	1642.00
311.00	1856.00
312.00	2209.00
313.00	2611.00
314.00	3369.00
315.00	4271.00
316.00	5714.00
317.00	7827.00
318.00	10139.00
319.00	13217.00
320.00	16342.00
321.00	19671.00
322.00	23041.00
323.00	25080.00
324.00	26493.00
325.00	26675.00
326.00	25316.00
327.00	22942.00
328.00	19997.00
329.00	16291.00
330.00	12944.00
331.00	9810.00
332.00	7273.00
333.00	5089.00
334.00	3548.00
335.00	2614.00
336.00	2029.00
337.00	1749.00
338.00	1563.00
339.00	1598.00
340.00	1792.00
341.00	2086.00
342.00	2578.00
343.00	3152.00
344.00	3971.00
345.00	5262.00
346.00	7437.00
347.00	10516.00
348.00	15538.00
349.00	22993.00
350.00	34658.00
351.00	52108.00
352.00	76893.00
353.00	111697.00
354.00	155649.00
355.00	210899.00
356.00	274221.00
357.00	341081.00
358.00	406617.00
359.00	462255.00
360.00	503664.00
361.00	521076.00
362.00	516330.00
363.00	488319.00
364.00	441238.00
365.00	380162.00
366.00	310863.00
367.00	244398.00
368.00	183223.00
369.00	131725.00
370.00	90140.00
371.00	59457.00
372.00	37982.00
373.00	23409.00
374.00	14400.00
375.00	9380.00
376.00	6486.00
377.00	5211.00
378.00	4910.00
379.00	5233.00
380.00	6148.00
381.00	7893.00
382.00	10233.00
383.00	13926.00
384.00	18954.00
385.00	24920.00
386.00	32425.00
387.00	41685.00
388.00	50479.00
389.00	59279.00
390.00	68300.00
391.00	75359.00
392.00	78613.00
393.00	80097.00
394.00	76676.00
395.00	71411.00
396.00	63746.00
397.00	54206.00
398.00	43787.00
399.00	34798.00
400.00	26086.00
401.00	18815.00
402.00	13055.00
403.00	8955.00
404.00	5875.00
405.00	3956.00
406.00	2603.00
407.00	1772.00
408.00	1277.00
409.00	981.00
410.00	802.00
411.00	786.00
412.00	734.00
413.00	717.00
414.00	713.00
415.00	675.00
416.00	701.00
417.00	691.00
418.00	727.00
419.00	719.00
420.00	772.00
421.00	753.00
422.00	791.00
423.00	817.00
424.00	846.00
425.00	914.00
426.00	1010.00
427.00	1087.00
428.00	1366.00
429.00	1740.00
430.00	2086.00
431.00	2757.00
432.00	3581.00
433.00	4776.00
434.00	5807.00
435.00	7252.00
436.00	8924.00
437.00	10494.00
438.00	11816.00
439.00	12962.00
440.00	13687.00
441.00	13944.00
442.00	13814.00
443.00	12845.00
444.00	11887.00
445.00	10397.00
446.00	8814.00
447.00	7402.00
448.00	6104.00
449.00	5067.00
450.00	4072.00
451.00	3477.00
452.00	3145.00
453.00	2857.00
454.00	2640.00
455.00	2447.00
456.00	2431.00
457.00	2245.00
458.00	2099.00
459.00	1891.00
460.00	1809.00
461.00	1634.00
462.00	1626.00
463.00	1533.00
464.00	1490.00
465.00	1510.00
466.00	1592.00
467.00	1623.00
468.00	1642.00
469.00	1841.00
470.00	1952.00
471.00	2012.00
472.00	2248.00
473.00	2493.00
474.00	2612.00
475.00	2841.00
476.00	3080.00
477.00	3257.00
478.00	3583.00
479.00	3724.00
480.00	3981.00
481.00	4060.00
482.00	4187.00
483.00	4054.00
484.00	3867.00
485.00	3738.00
486.00	3456.00
487.00	3230.00
488.00	2806.00
489.00	2624.00
490.00	2385.00
491.00	2134.00
492.00	1847.00
493.00	1679.00
494.00	1632.00
495.00	1493.00
496.00	1431.00
497.00	1496.00
498.00	1419.00
499.00	1435.00
500.00	1491.00
501.00	1582.00
502.00	1562.00
503.00	1596.00
504.00	1679.00
505.00	1756.00
506.00	1794.00
507.00	1916.00
508.00	1911.00
509.00	2005.00
510.00	2070.00
511.00	2136.00
512.00	2249.00
513.00	2304.00
514.00	2366.00
515.00	2593.00
516.00	2572.00
517.00	2830.00
518.00	2911.00
519.00	3151.00
520.00	3351.00
521.00	3588.00
522.00	3808.00
523.00	4113.00
524.00	4504.00
525.00	4698.00
526.00	5076.00
527.00	5284.00
528.00	5340.00
529.00	5263.00
530.00	5229.00
531.00	5056.00
532.00	4861.00
533.00	4649.00
534.00	4281.00
535.00	3914.00
536.00	3579.00
537.00	3197.00
538.00	3125.00
539.00	2877.00
540.00	2803.00
541.00	2685.00
542.00	2699.00
543.00	2619.00
544.00	2618.00
545.00	2648.00
546.00	2781.00
547.00	2724.00
548.00	2773.00
549.00	2828.00
550.00	2811.00
551.00	2895.00
552.00	2919.00
553.00	3030.00
554.00	2945.00
555.00	3060.00
556.00	2954.00
557.00	3090.00
558.00	3192.00
559.00	3227.00
560.00	3195.00
561.00	3363.00
562.00	3397.00
563.00	3487.00
564.00	3723.00
565.00	4019.00
566.00	4255.00
567.00	4421.00
568.00	4908.00
569.00	5470.00
570.00	5835.00
571.00	6191.00
572.00	6847.00
573.00	7228.00
574.00	7575.00
575.00	7875.00
576.00	7920.00
577.00	7920.00
578.00	7701.00
579.00	7336.00
580.00	7000.00
581.00	6388.00
582.00	5779.00
583.00	5356.00
584.00	4825.00
585.00	4333.00
586.00	3873.00
587.00	3683.00
588.00	3465.00
589.00	3193.00
590.00	3222.00
591.00	3074.00
592.00	3187.00
593.00	3127.00
594.00	3170.00
595.00	3257.00
596.00	3296.00
597.00	3336.00
598.00	3480.00
599.00	3604.00
600.00	3836.00
601.00	3842.00
602.00	4164.00
603.00	4427.00
604.00	4840.00
605.00	5376.00
606.00	6172.00
607.00	7472.00
608.00	9326.00
609.00	12089.00
610.00	16621.00
611.00	22618.00
612.00	31306.00
613.00	43136.00
614.00	59102.00
615.00	78704.00
616.00	104002.00
617.00	133087.00
618.00	165949.00
619.00	202204.00
620.00	239150.00
621.00	274732.00
622.00	305859.00
623.00	331160.00
624.00	349327.00
625.00	357268.00
626.00	354144.00
627.00	339416.00
628.00	316970.00
629.00	287550.00
630.00	253191.00
631.00	217739.00
632.00	180212.00
633.00	146218.00
634.00	114987.00
635.00	88018.00
636.00	66602.00
637.00	48621.00
638.00	35776.00
639.00	25956.00
640.00	18930.00
641.00	14051.00
642.00	10643.00
643.00	8424.00
644.00	7117.00
645.00	6286.00
646.00	5854.00
647.00	5465.00
648.00	5346.00
649.00	5205.00
650.00	5358.00
651.00	5277.00
652.00	5267.00
653.00	5347.00
654.00	5224.00
655.00	5320.00
656.00	5339.00
657.00	5429.00
658.00	5599.00
659.00	5584.00
660.00	5688.00
661.00	5704.00
662.00	6109.00
663.00	5987.00
664.00	6090.00
665.00	6164.00
666.00	6379.00
667.00	6546.00
668.00	6807.00
669.00	7062.00
670.00	7557.00
671.00	7892.00
672.00	8487.00
673.00	9310.00
674.00	10360.00
675.00	11533.00
676.00	13269.00
677.00	15369.00
678.00	18265.00
679.00	21654.00
680.00	25815.00
681.00	30205.00
682.00	35752.00
683.00	41140.00
684.00	46094.00
685.00	51125.00
686.00	55427.00
687.00	58564.00
688.00	61229.00
689.00	61307.00
690.00	60582.00
691.00	58757.00
692.00	55660.00
693.00	51040.00
694.00	45622.00
695.00	40329.00
696.00	35073.00
697.00	29567.00
698.00	24880.00
699.00	20605.00
700.00	17106.00
701.00	14483.00
702.00	12113.00
703.00	10271.00
704.00	9011.00
705.00	8059.00
706.00	7603.00
707.00	7101.00
708.00	7177.00
709.00	6817.00
710.00	7005.00
711.00	6892.00
712.00	7033.00
713.00	6958.00
714.00	7285.00
715.00	7685.00
716.00	7660.00
717.00	7992.00
718.00	8113.00
719.00	8303.00
720.00	8423.00
721.00	8879.00
722.00	9057.00
723.00	9263.00
724.00	9505.00
725.00	9846.00
726.00	10094.00
727.00	9969.00
728.00	10160.00
729.00	10114.00
730.00	10282.00
731.00	10126.00
732.00	9983.00
733.00	9631.00
734.00	9479.00
735.00	9059.00
736.00	8807.00
737.00	8571.00
738.00	8314.00
739.00	8267.00
740.00	7850.00
741.00	7817.00
742.00	7833.00
743.00	7614.00
744.00	7320.00
745.00	7374.00
746.00	7491.00
747.00	7507.00
748.00	7384.00
749.00	7304.00
750.00	7526.00
751.00	7459.00
752.00	7444.00
753.00	7562.00
754.00	7449.00
755.00	7487.00
756.00	7585.00
757.00	7604.00
758.00	7485.00
759.00	7557.00
760.00	7523.00
761.00	7679.00
762.00	7721.00
763.00	7822.00
764.00	7856.00
765.00	7985.00
766.00	7864.00
767.00	8188.00
768.00	8161.00
769.00	8343.00
770.00	8604.00
771.00	8643.00
772.00	8972.00
773.00	9011.00
774.00	9256.00
775.00	9411.00
776.00	9739.00
777.00	10128.00
778.00	10465.00
779.00	10975.00
780.00	10942.00
781.00	11628.00
782.00	11932.00
783.00	12197.00
784.00	12573.00
785.00	13168.00
786.00	13346.00
787.00	13722.00
788.00	14191.00
789.00	14450.00
790.00	14538.00
791.00	14904.00
792.00	15180.00
793.00	15165.00
794.00	15517.00
795.00	15910.00
796.00	15929.00
797.00	15953.00
798.00	16479.00
799.00	16213.00
800.00	16240.00
801.00	16393.00
802.00	16562.00
803.00	16685.00
804.00	16915.00
805.00	17364.00
806.00	17867.00
807.00	18279.00
808.00	18763.00
809.00	19533.00
810.00	20527.00
811.00	21788.00
812.00	22987.00
813.00	23979.00
814.00	25297.00
815.00	26606.00
816.00	27850.00
817.00	27974.00
818.00	29012.00
819.00	29164.00
820.00	28867.00
821.00	28570.00
822.00	28042.00
823.00	26881.00
824.00	25728.00
825.00	24206.00
826.00	22784.00
827.00	21005.00
828.00	19655.00
829.00	18388.00
830.00	17008.00
831.00	16305.00
832.00	15641.00
833.00	15032.00
834.00	14736.00
835.00	14312.00
836.00	14552.00
837.00	14262.00
838.00	14279.00
839.00	14342.00
840.00	14153.00
841.00	14309.00
842.00	14211.00
843.00	14414.00
844.00	14306.00
845.00	14423.00
846.00	14241.00
847.00	14199.00
848.00	14159.00
849.00	14020.00
850.00	13703.00
851.00	13570.00
852.00	13621.00
853.00	13453.00
854.00	13588.00
855.00	13470.00
856.00	13487.00
857.00	13179.00
858.00	13626.00
859.00	13451.00
860.00	13511.00
861.00	13195.00
862.00	13315.00
863.00	13479.00
864.00	13381.00
865.00	13448.00
866.00	13397.00
867.00	13602.00
868.00	13567.00
869.00	13502.00
870.00	13568.00
871.00	13830.00
872.00	13685.00
873.00	13754.00
874.00	13803.00
875.00	13887.00
876.00	13766.00
877.00	13798.00
878.00	14220.00
879.00	14163.00
880.00	14092.00
881.00	14125.00
882.00	14409.00
883.00	14444.00
884.00	14587.00
885.00	14613.00
886.00	14887.00
887.00	14873.00
888.00	15088.00
889.00	15306.00
890.00	15620.00
891.00	15620.00
892.00	16000.00
893.00	15976.00
894.00	16133.00
895.00	16280.00
896.00	16610.00
897.00	17221.00
898.00	17158.00
899.00	17410.00
900.00	17550.00
901.00	17975.00
902.00	18047.00
903.00	18384.00
904.00	18597.00
905.00	18635.00
906.00	18795.00
907.00	18901.00
908.00	19041.00
909.00	19213.00
910.00	19634.00
911.00	19604.00
912.00	19912.00
913.00	20022.00
914.00	20082.00
915.00	20097.00
916.00	20371.00
917.00	20330.00
918.00	20307.00
919.00	20777.00
920.00	20560.00
921.00	20800.00
922.00	21005.00
923.00	20812.00
924.00	21089.00
925.00	21132.00
926.00	21418.00
927.00	21433.00
928.00	21815.00
929.00	22197.00
930.00	22506.00
931.00	22490.00
932.00	22935.00
933.00	23174.00
934.00	23791.00
935.00	24490.00
936.00	24552.00
937.00	25350.00
938.00	26009.00
939.00	26402.00
940.00	27108.00
941.00	27155.00
942.00	27302.00
943.00	27564.00
944.00	27354.00
945.00	27548.00
946.00	26766.00
947.00	26669.00
948.00	26144.00
949.00	25449.00
950.00	24815.00
951.00	23784.00
952.00	24011.00
953.00	23000.00
954.00	22446.00
955.00	22146.00
956.00	21795.00
957.00	20983.00
958.00	20951.00
959.00	21065.00
960.00	20846.00
961.00	20544.00
962.00	20715.00
963.00	20745.00
964.00	20795.00
965.00	20834.00
966.00	20970.00
967.00	21123.00
968.00	21034.00
969.00	21139.00
970.00	21137.00
971.00	20998.00
972.00	21121.00
973.00	21030.00
974.00	21030.00
975.00	20623.00
976.00	20700.00
977.00	20447.00
978.00	20333.00
979.00	20210.00
980.00	19778.00
981.00	19515.00
982.00	19250.00
983.00	18910.00
984.00	18882.00
985.00	18681.00
986.00	18206.00
987.00	18427.00
988.00	18286.00
989.00	18510.00
990.00	18477.00
991.00	18508.00
992.00	18368.00
993.00	18139.00
994.00	18100.00
995.00	17984.00
996.00	17969.00
997.00	18176.00
998.00	18035.00
999.00	17938.00
1000.00	18065.00
1001.00	17879.00
1002.00	17948.00
1003.00	18019.00
1004.00	18055.00
1005.00	18202.00
1006.00	17657.00
1007.00	17944.00
1008.00	17961.00
1009.00	17924.00
1010.00	18131.00
1011.00	18225.00
1012.00	17925.00
1013.00	18240.00
1014.00	18071.00
1015.00	17925.00
1016.00	18072.00
1017.00	18249.00
1018.00	18195.00
1019.00	18400.00
1020.00	18517.00
1021.00	18512.00
1022.00	18727.00
1023.00	18817.00
1024.00	18663.00
1025.00	18784.00
1026.00	18763.00
1027.00	18964.00
1028.00	18793.00
1029.00	19112.00
1030.00	18712.00
1031.00	18879.00
1032.00	18881.00
1033.00	18862.00
1034.00	18790.00
1035.00	19056.00
1036.00	18798.00
1037.00	18823.00
1038.00	18680.00
1039.00	18800.00
1040.00	18668.00
1041.00	18921.00
1042.00	18737.00
1043.00	19128.00
1044.00	19100.00
1045.00	19126.00
1046.00	19453.00
1047.00	19196.00
1048.00	19637.00
1049.00	19129.00
1050.00	19811.00
1051.00	19439.00
1052.00	19415.00
1053.00	19504.00
1054.00	19825.00
1055.00	19704.00
1056.00	19825.00
1057.00	19828.00
1058.00	19733.00
1059.00	19813.00
1060.00	20153.00
1061.00	20324.00
1062.00	20225.00
1063.00	19896.00
1064.00	20240.00
1065.00	20129.00
1066.00	20315.00
1067.00	20621.00
1068.00	20356.00
1069.00	20284.00
1070.00	20606.00
1071.00	20348.00
1072.00	20368.00
1073.00	20436.00
1074.00	20258.00
1075.00	20282.00
1076.00	20356.00
1077.00	20189.00
1078.00	20597.00
1079.00	20557.00
1080.00	20374.00
1081.00	20671.00
1082.00	20657.00
1083.00	20619.00
1084.00	20707.00
1085.00	20870.00
1086.00	20757.00
1087.00	20789.00
1088.00	20735.00
1089.00	20860.00
1090.00	20814.00
1091.00	21288.00
1092.00	21002.00
1093.00	21609.00
1094.00	21452.00
1095.00	21641.00
1096.00	21862.00
1097.00	21991.00
1098.00	21844.00
1099.00	21985.00
1100.00	22276.00
1101.00	22185.00
1102.00	22092.00
1103.00	22465.00
1104.00	22177.00
1105.00	21929.00
1106.00	21914.00
1107.00	21879.00
1108.00	21773.00
1109.00	21605.00
1110.00	21769.00
1111.00	21763.00
1112.00	21569.00
1113.00	21707.00
1114.00	21194.00
1115.00	21512.00
1116.00	21271.00
1117.00	21468.00
1118.00	21528.00
1119.00	21227.00
1120.00	21312.00
1121.00	21593.00
1122.00	21651.00
1123.00	21449.00
1124.00	21505.00
1125.00	21477.00
1126.00	21494.00
1127.00	21403.00
1128.00	21680.00
1129.00	21873.00
1130.00	21761.00
1131.00	21666.00
1132.00	21682.00
1133.00	21558.00
1134.00	21310.00
1135.00	21702.00
1136.00	21810.00
1137.00	21722.00
1138.00	22014.00
1139.00	21796.00
1140.00	21645.00
1141.00	21617.00
1142.00	21907.00
1143.00	21881.00
1144.00	21960.00
1145.00	22010.00
1146.00	22096.00
1147.00	22018.00
1148.00	22493.00
1149.00	22814.00
1150.00	22883.00
1151.00	23163.00
1152.00	23463.00
1153.00	23907.00
1154.00	24219.00
1155.00	24210.00
1156.00	24725.00
1157.00	25089.00
1158.00	25312.00
1159.00	25815.00
1160.00	25886.00
1161.00	25711.00
1162.00	26034.00
1163.00	26029.00
1164.00	25598.00
1165.00	25477.00
1166.00	25342.00
1167.00	25281.00
1168.00	24844.00
1169.00	24319.00
1170.00	23962.00
1171.00	23377.00
1172.00	23519.00
1173.00	22937.00
1174.00	22821.00
1175.00	22485.00
1176.00	22334.00
1177.00	22219.00
1178.00	21902.00
1179.00	21933.00
1180.00	21798.00
1181.00	21727.00
1182.00	21884.00
1183.00	21536.00
1184.00	21597.00
1185.00	21663.00
1186.00	21664.00
1187.00	21556.00
1188.00	21785.00
1189.00	21815.00
1190.00	21558.00
1191.00	21816.00
1192.00	21710.00
1193.00	21733.00
1194.00	21752.00
1195.00	21850.00
1196.00	21843.00
1197.00	21879.00
1198.00	21881.00
1199.00	21858.00
1200.00	21800.00
1201.00	22028.00
1202.00	22020.00
1203.00	22308.00
1204.00	22309.00
1205.00	22195.00
1206.00	22377.00
1207.00	22400.00
1208.00	22564.00
1209.00	22285.00
1210.00	21974.00
1211.00	22551.00
1212.00	22443.00
1213.00	22394.00
1214.00	22114.00
1215.00	23010.00
1216.00	22196.00
1217.00	22794.00
1218.00	22419.00
1219.00	22727.00
1220.00	22638.00
1221.00	22723.00
1222.00	22654.00
1223.00	22939.00
1224.00	22784.00
1225.00	22944.00
1226.00	23071.00
1227.00	22958.00
1228.00	22962.00
1229.00	23056.00
1230.00	22771.00
1231.00	22739.00
1232.00	22955.00
1233.00	23018.00
1234.00	22988.00
1235.00	22960.00
1236.00	22961.00
1237.00	22959.00
1238.00	22959.00
1239.00	23245.00
1240.00	23149.00
1241.00	23037.00
1242.00	23208.00
1243.00	23357.00
1244.00	22942.00
1245.00	23228.00
1246.00	23326.00
1247.00	23023.00
1248.00	22785.00
1249.00	22744.00
1250.00	23312.00
1251.00	23247.00
1252.00	23507.00
1253.00	23029.00
1254.00	23021.00
1255.00	23307.00
1256.00	22891.00
1257.00	23093.00
1258.00	23140.00
1259.00	23366.00
1260.00	23053.00
1261.00	23448.00
1262.00	23136.00
1263.00	23433.00
1264.00	23331.00
1265.00	23061.00
1266.00	23327.00
1267.00	23638.00
1268.00	23299.00
1269.00	23279.00
1270.00	22991.00
1271.00	23544.00
1272.00	23441.00
1273.00	23527.00
1274.00	23464.00
1275.00	23332.00
1276.00	23730.00
1277.00	23494.00
1278.00	23360.00
1279.00	23467.00
1280.00	23629.00
1281.00	23814.00
1282.00	23817.00
1283.00	23780.00
1284.00	23996.00
1285.00	23898.00
1286.00	24106.00
1287.00	24210.00
1288.00	24736.00
1289.00	24798.00
1290.00	25157.00
1291.00	25111.00
1292.00	25522.00
1293.00	25804.00
1294.00	26000.00
1295.00	26446.00
1296.00	26920.00
1297.00	27243.00
1298.00	27418.00
1299.00	27618.00
1300.00	28031.00
1301.00	28209.00
1302.00	28356.00
1303.00	28415.00
1304.00	28206.00
1305.00	28161.00
1306.00	28494.00
1307.00	28362.00
1308.00	27735.00
1309.00	27669.00
1310.00	27808.00
1311.00	27184.00
1312.00	26885.00
1313.00	26714.00
1314.00	26373.00
1315.00	25690.00
1316.00	25774.00
1317.00	25542.00
1318.00	25538.00
1319.00	25063.00
1320.00	24854.00
1321.00	24550.00
1322.00	24304.00
1323.00	24540.00
1324.00	24365.00
1325.00	24192.00
1326.00	24389.00
1327.00	23963.00
1328.00	23998.00
1329.00	24132.00
1330.00	24231.00
1331.00	24064.00
1332.00	23829.00
1333.00	24204.00
1334.00	24106.00
1335.00	24011.00
1336.00	24093.00
1337.00	24131.00
1338.00	24005.00
1339.00	24302.00
1340.00	23999.00
1341.00	24354.00
1342.00	24169.00
1343.00	24369.00
1344.00	24208.00
1345.00	24114.00
1346.00	24141.00
1347.00	24478.00
1348.00	24193.00
1349.00	24500.00
1350.00	24530.00
1351.00	24650.00
1352.00	24689.00
1353.00	24879.00
1354.00	24909.00
1355.00	25094.00
1356.00	25609.00
1357.00	25711.00
1358.00	26231.00
1359.00	26855.00
1360.00	27564.00
1361.00	28776.00
1362.00	29442.00
1363.00	30470.00
1364.00	32341.00
1365.00	34168.00
1366.00	35791.00
1367.00	37562.00
1368.00	39814.00
1369.00	42254.00
1370.00	44318.00
1371.00	47153.00
1372.00	49124.00
1373.00	51613.00
1374.00	53278.00
1375.00	55619.00
1376.00	57268.00
1377.00	59182.00
1378.00	59732.00
1379.00	59980.00
1380.00	60063.00
1381.00	59006.00
1382.00	58392.00
1383.00	57092.00
1384.00	55676.00
1385.00	53411.00
1386.00	50844.00
1387.00	48815.00
1388.00	46000.00
1389.00	43550.00
1390.00	40746.00
1391.00	38450.00
1392.00	36441.00
1393.00	34637.00
1394.00	32461.00
1395.00	30863.00
1396.00	29489.00
1397.00	27974.00
1398.00	27004.00
1399.00	26539.00
1400.00	25517.00
1401.00	25170.00
1402.00	25051.00
1403.00	24427.00
1404.00	24035.00
1405.00	23719.00
1406.00	23566.00
1407.00	23357.00
1408.00	23510.00
1409.00	23687.00
1410.00	23554.00
1411.00	23318.00
1412.00	23541.00
1413.00	22991.00
1414.00	23291.00
1415.00	23336.00
1416.00	23349.00
1417.00	23093.00
1418.00	23214.00
1419.00	23359.00
1420.00	23615.00
1421.00	23280.00
1422.00	23348.00
1423.00	23125.00
1424.00	23192.00
1425.00	23361.00
1426.00	23234.00
1427.00	23139.00
1428.00	23707.00
1429.00	23063.00
1430.00	22894.00
1431.00	23601.00
1432.00	23480.00
1433.00	23320.00
1434.00	23289.00
1435.00	23510.00
1436.00	23229.00
1437.00	23615.00
1438.00	23392.00
1439.00	23530.00
1440.00	23450.00
1441.00	23654.00
1442.00	23500.00
1443.00	23954.00
1444.00	23798.00
1445.00	23688.00
1446.00	23871.00
1447.00	24345.00
1448.00	24308.00
1449.00	24648.00
1450.00	24548.00
1451.00	24580.00
1452.00	24999.00
1453.00	25129.00
1454.00	24943.00
1455.00	24932.00
1456.00	25306.00
1457.00	25226.00
1458.00	25087.00
1459.00	25251.00
1460.00	24958.00
1461.00	24910.00
1462.00	24840.00
1463.00	25014.00
1464.00	24910.00
1465.00	24791.00
1466.00	24849.00
1467.00	24628.00
1468.00	24474.00
1469.00	24530.00
1470.00	24362.00
1471.00	24353.00
1472.00	24288.00
1473.00	24284.00
1474.00	24084.00
1475.00	23906.00
1476.00	24173.00
1477.00	24067.00
1478.00	24233.00
1479.00	24179.00
1480.00	24013.00
1481.00	24089.00
1482.00	24395.00
1483.00	24433.00
1484.00	24225.00
1485.00	24070.00
1486.00	24288.00
1487.00	24283.00
1488.00	24137.00
1489.00	24525.00
1490.00	24428.00
1491.00	24475.00
1492.00	24372.00
1493.00	24512.00
1494.00	24439.00
1495.00	24180.00
1496.00	24517.00
1497.00	24594.00
1498.00	24546.00
1499.00	24814.00
1500.00	24629.00
1501.00	24943.00
1502.00	24893.00
1503.00	24860.00
1504.00	24588.00
1505.00	25253.00
1506.00	24972.00
1507.00	25390.00
1508.00	25251.00
1509.00	25205.00
1510.00	25352.00
1511.00	25519.00
1512.00	25380.00
1513.00	25914.00
1514.00	25779.00
1515.00	26182.00
1516.00	26242.00
1517.00	26786.00
1518.00	27088.00
1519.00	27146.00
1520.00	27211.00
1521.00	27956.00
1522.00	28078.00
1523.00	28783.00
1524.00	29323.00
1525.00	29693.00
1526.00	30326.00
1527.00	30679.00
1528.00	31905.00
1529.00	31977.00
1530.00	32803.00
1531.00	33501.00
1532.00	34229.00
1533.00	34982.00
1534.00	35671.00
1535.00	35891.00
1536.00	36730.00
1537.00	37367.00
1538.00	37562.00
1539.00	37743.00
1540.00	38445.00
1541.00	38250.00
1542.00	38488.00
1543.00	38207.00
1544.00	38537.00
1545.00	38446.00
1546.00	37983.00
1547.00	37992.00
1548.00	37456.00
1549.00	37545.00
1550.00	37222.00
1551.00	36429.00
1552.00	35899.00
1553.00	36017.00
1554.00	35890.00
1555.00	35866.00
1556.00	35608.00
1557.00	35482.00
1558.00	35413.00
1559.00	35861.00
1560.00	35706.00
1561.00	36351.00
1562.00	36934.00
1563.00	37258.00
1564.00	37913.00
1565.00	38717.00
1566.00	39206.00
1567.00	39886.00
1568.00	41178.00
1569.00	41838.00
1570.00	42687.00
1571.00	43552.00
1572.00	44808.00
1573.00	45703.00
1574.00	46657.00
1575.00	48105.00
1576.00	49536.00
1577.00	50610.00
1578.00	52020.00
1579.00	52939.00
1580.00	54573.00
1581.00	56301.00
1582.00	58184.00
1583.00	59182.00
1584.00	61572.00
1585.00	62855.00
1586.00	64193.00
1587.00	65825.00
1588.00	67835.00
1589.00	69615.00
1590.00	71086.00
1591.00	72862.00
1592.00	74168.00
1593.00	76209.00
1594.00	77453.00
1595.00	79435.00
1596.00	80899.00
1597.00	82058.00
1598.00	82558.00
1599.00	84491.00
1600.00	84957.00
1601.00	85927.00
1602.00	87089.00
1603.00	87378.00
1604.00	88087.00
1605.00	88372.00
1606.00	87805.00
1607.00	88670.00
1608.00	88499.00
1609.00	88134.00
1610.00	88076.00
1611.00	87800.00
1612.00	86480.00
1613.00	85523.00
1614.00	85057.00
1615.00	84505.00
1616.00	83367.00
1617.00	82437.00
1618.00	80936.00
1619.00	79780.00
1620.00	78462.00
1621.00	76756.00
1622.00	75519.00
1623.00	73936.00
1624.00	71994.00
1625.00	70139.00
1626.00	68921.00
1627.00	66713.00
1628.00	65138.00
1629.00	63490.00
1630.00	61910.00
1631.00	60444.00
1632.00	58282.00
1633.00	57167.00
1634.00	55832.00
1635.00	53797.00
1636.00	52498.00
1637.00	50224.00
1638.00	49159.00
1639.00	47815.00
1640.00	46128.00
1641.00	44976.00
1642.00	43729.00
1643.00	42445.00
1644.00	41193.00
1645.00	40127.00
1646.00	39344.00
1647.00	38027.00
1648.00	36925.00
1649.00	36057.00
1650.00	35471.00
1651.00	34158.00
1652.00	33735.00
1653.00	33149.00
1654.00	32244.00
1655.00	31691.00
1656.00	30939.00
1657.00	30639.00
1658.00	29746.00
1659.00	29119.00
1660.00	28701.00
1661.00	28495.00
1662.00	27714.00
1663.00	27513.00
1664.00	26797.00
1665.00	26864.00
1666.00	26727.00
1667.00	26761.00
1668.00	26151.00
1669.00	26067.00
1670.00	25720.00
1671.00	25464.00
1672.00	25564.00
1673.00	25522.00
1674.00	26185.00
1675.00	26351.00
1676.00	26690.00
1677.00	27102.00
1678.00	28127.00
1679.00	28740.00
1680.00	29955.00
1681.00	31147.00
1682.00	32365.00
1683.00	33826.00
1684.00	35795.00
1685.00	37815.00
1686.00	39823.00
1687.00	42274.00
1688.00	44443.00
1689.00	47201.00
1690.00	49332.00
1691.00	52130.00
1692.00	54959.00
1693.00	56940.00
1694.00	59568.00
1695.00	61717.00
1696.00	63790.00
1697.00	65091.00
1698.00	67018.00
1699.00	68370.00
1700.00	68955.00
1701.00	68970.00
1702.00	68830.00
1703.00	68491.00
1704.00	67632.00
1705.00	66555.00
1706.00	64810.00
1707.00	62153.00
1708.00	59835.00
1709.00	57153.00
1710.00	54435.00
1711.00	51818.00
1712.00	48546.00
1713.00	44976.00
1714.00	42548.00
1715.00	39583.00
1716.00	36837.00
1717.00	34293.00
1718.00	32393.00
1719.00	30496.00
1720.00	28337.00
1721.00	26790.00
1722.00	25713.00
1723.00	24485.00
1724.00	23444.00
1725.00	22468.00
1726.00	22103.00
1727.00	21608.00
1728.00	20869.00
1729.00	20667.00
1730.00	20399.00
1731.00	19990.00
1732.00	19632.00
1733.00	19845.00
1734.00	19479.00
1735.00	19243.00
1736.00	19398.00
1737.00	19453.00
1738.00	19217.00
1739.00	19375.00
1740.00	19529.00
1741.00	19339.00
1742.00	19452.00
1743.00	19445.00
1744.00	19630.00
1745.00	19608.00
1746.00	19789.00
1747.00	19853.00
1748.00	19756.00
1749.00	19914.00
1750.00	20048.00
1751.00	20053.00
1752.00	20274.00
1753.00	20390.00
1754.00	20422.00
1755.00	20619.00
1756.00	20800.00
1757.00	20859.00
1758.00	21239.00
1759.00	21196.00
1760.00	21048.00
1761.00	21551.00
1762.00	21590.00
1763.00	21942.00
1764.00	21769.00
1765.00	22275.00
1766.00	22613.00
1767.00	22588.00
1768.00	22936.00
1769.00	23101.00
1770.00	23352.00
1771.00	23351.00
1772.00	23759.00
1773.00	23965.00
1774.00	24291.00
1775.00	24384.00
1776.00	24663.00
1777.00	24968.00
1778.00	25012.00
1779.00	25513.00
1780.00	25450.00
1781.00	25677.00
1782.00	25627.00
1783.00	25805.00
1784.00	26530.00
1785.00	26212.00
1786.00	26323.00
1787.00	26574.00
1788.00	26444.00
1789.00	26745.00
1790.00	26506.00
1791.00	26901.00
1792.00	26708.00
1793.00	26694.00
1794.00	26620.00
1795.00	26711.00
1796.00	26844.00
1797.00	26772.00
1798.00	26267.00
1799.00	25730.00
1800.00	26274.00
1801.00	26013.00
1802.00	25434.00
1803.00	25603.00
1804.00	25547.00
1805.00	25068.00
1806.00	24984.00
1807.00	24862.00
1808.00	24489.00
1809.00	24560.00
1810.00	23947.00
1811.00	23730.00
1812.00	23503.00
1813.00	23258.00
1814.00	22512.00
1815.00	22333.00
1816.00	21893.00
1817.00	21805.00
1818.00	21392.00
1819.00	20907.00
1820.00	20987.00
1821.00	20379.00
1822.00	20282.00
1823.00	19645.00
1824.00	19381.00
1825.00	19269.00
1826.00	18822.00
1827.00	18740.00
1828.00	18327.00
1829.00	17710.00
1830.00	17659.00
1831.00	17266.00
1832.00	16869.00
1833.00	17009.00
1834.00	16430.00
1835.00	16280.00
1836.00	15967.00
1837.00	15747.00
1838.00	15427.00
1839.00	15273.00
1840.00	15163.00
1841.00	15020.00
1842.00	14601.00
1843.00	14329.00
1844.00	14343.00
1845.00	14091.00
1846.00	13740.00
1847.00	13695.00
1848.00	13547.00
1849.00	13288.00
1850.00	13037.00
1851.00	12847.00
1852.00	12871.00
1853.00	12707.00
1854.00	12475.00
1855.00	12425.00
1856.00	12214.00
1857.00	12068.00
1858.00	11989.00
1859.00	11705.00
1860.00	11630.00
1861.00	11489.00
1862.00	11437.00
1863.00	11379.00
1864.00	11178.00
1865.00	11022.00
1866.00	10880.00
1867.00	10937.00
1868.00	10736.00
1869.00	10486.00
1870.00	10613.00
1871.00	10474.00
1872.00	10463.00
1873.00	10415.00
1874.00	10421.00
1875.00	10307.00
1876.00	10039.00
1877.00	10061.00
1878.00	10273.00
1879.00	10058.00
1880.00	9818.00
1881.00	10154.00
1882.00	9952.00
1883.00	9883.00
1884.00	9880.00
1885.00	9854.00
1886.00	9833.00
1887.00	9938.00
1888.00	9953.00
1889.00	10270.00
1890.00	10104.00
1891.00	10383.00
1892.00	10355.00
1893.00	10717.00
1894.00	10754.00
1895.00	10939.00
1896.00	11048.00
1897.00	11448.00
1898.00	11799.00
1899.00	12152.00
1900.00	12367.00
1901.00	12651.00
1902.00	13185.00
1903.00	13561.00
1904.00	14199.00
1905.00	14536.00
1906.00	14667.00
1907.00	14909.00
1908.00	15018.00
1909.00	15290.00
1910.00	15413.00
1911.00	15452.00
1912.00	15422.00
1913.00	15050.00
1914.00	14970.00
1915.00	14687.00
1916.00	14483.00
1917.00	13944.00
1918.00	13359.00
1919.00	13229.00
1920.00	12891.00
1921.00	12331.00
1922.00	12004.00
1923.00	11483.00
1924.00	11239.00
1925.00	10803.00
1926.00	10280.00
1927.00	10146.00
1928.00	9899.00
1929.00	9693.00
1930.00	9292.00
1931.00	9328.00
1932.00	9288.00
1933.00	9090.00
1934.00	9048.00
1935.00	8790.00
1936.00	9016.00
1937.00	8848.00
1938.00	8946.00
1939.00	8949.00
1940.00	8889.00
1941.00	8821.00
1942.00	8827.00
1943.00	8819.00
1944.00	8835.00
1945.00	8556.00
1946.00	8860.00
1947.00	8656.00
1948.00	8647.00
1949.00	8733.00
1950.00	8659.00
1951.00	8434.00
1952.00	8450.00
1953.00	8080.00
1954.00	8171.00
1955.00	7910.00
1956.00	7909.00
1957.00	7754.00
1958.00	7830.00
1959.00	7568.00
1960.00	7547.00
1961.00	7434.00
1962.00	7372.00
1963.00	7218.00
1964.00	7294.00
1965.00	7270.00
1966.00	7217.00
1967.00	7097.00
1968.00	7181.00
1969.00	7017.00
1970.00	7060.00
1971.00	6933.00
1972.00	7097.00
1973.00	7053.00
1974.00	7012.00
1975.00	6989.00
1976.00	6863.00
1977.00	6950.00
1978.00	7007.00
1979.00	6890.00
1980.00	6954.00
1981.00	6925.00
1982.00	6832.00
1983.00	6951.00
1984.00	6793.00
1985.00	6911.00
1986.00	6936.00
1987.00	6926.00
1988.00	6852.00
1989.00	6720.00
1990.00	6851.00
1991.00	6959.00
1992.00	6818.00
1993.00	6765.00
1994.00	6789.00
1995.00	6850.00
1996.00	6751.00
1997.00	6709.00
1998.00	6676.00
1999.00	6863.00
2000.00	6595.00
2001.00	6665.00
2002.00	6775.00
2003.00	6715.00
2004.00	6778.00
2005.00	6726.00
2006.00	6620.00
2007.00	6796.00
2008.00	6702.00
2009.00	6638.00
2010.00	6502.00
2011.00	6649.00
2012.00	6736.00
2013.00	6554.00
2014.00	6705.00
2015.00	6544.00
2016.00	6594.00
2017.00	6614.00
2018.00	6736.00
2019.00	6458.00
2020.00	6436.00
2021.00	6503.00
2022.00	6554.00
2023.00	6478.00
2024.00	6642.00
2025.00	6486.00
2026.00	6410.00
2027.00	6474.00
2028.00	6519.00
2029.00	6495.00
2030.00	6583.00
2031.00	6389.00
2032.00	6407.00
2033.00	6283.00
2034.00	6409.00
2035.00	6507.00
2036.00	6496.00
2037.00	6454.00
2038.00	6511.00
2039.00	6452.00
2040.00	6426.00
2041.00	6467.00
2042.00	6383.00
2043.00	6243.00
2044.00	6367.00
2045.00	6445.00
2046.00	6275.00
2047.00	6504.00
2048.00	 0.00
