Date:	31/01/2022		
Time:	12:57		
Sample name:	JC36_74_1		
Position:	296.000018	mm	
Sample surface:	7.595215	cm	
Tube anode:	Mo		
Tube voltage:	30	kV	
Tube current:	30	mA	
Comments	not in position		
Gain	2.150000		
peaking_time	0.300000	m-sec	
trigger_threshold	40.000000	V	
mca_bin_width	2.000000	no:	
number_mca_channels	2048.000000	no:	
gap_time	0.100000	m-sec	
trigger_peaking_time	0.050000	m-sec	
livetime	12.402056	seconds	
runtime	15.000129	seconds	
input_count_rate	69001.703560	cps	
output_count_rate	57050.374132	cps	
triggers	1002606.000000	seconds	
events_in_run	812778.000000	seconds	
channel	content		
 1.00	 0.00
 2.00	 0.00
 3.00	 0.00
 4.00	 0.00
 5.00	 0.00
 6.00	 0.00
 7.00	 0.00
 8.00	 0.00
 9.00	 0.00
10.00	 0.00
11.00	 0.00
12.00	 0.00
13.00	 0.00
14.00	 0.00
15.00	 0.00
16.00	 0.00
17.00	 0.00
18.00	 0.00
19.00	 0.00
20.00	 0.00
21.00	 0.00
22.00	 0.00
23.00	 0.00
24.00	 0.00
25.00	 0.00
26.00	 0.00
27.00	 0.00
28.00	 0.00
29.00	 0.00
30.00	 0.00
31.00	40.00
32.00	27.00
33.00	27.00
34.00	29.00
35.00	28.00
36.00	36.00
37.00	25.00
38.00	35.00
39.00	36.00
40.00	33.00
41.00	37.00
42.00	48.00
43.00	46.00
44.00	41.00
45.00	30.00
46.00	51.00
47.00	39.00
48.00	58.00
49.00	80.00
50.00	98.00
51.00	154.00
52.00	216.00
53.00	305.00
54.00	421.00
55.00	564.00
56.00	722.00
57.00	1048.00
58.00	1467.00
59.00	2112.00
60.00	2688.00
61.00	3084.00
62.00	3456.00
63.00	3465.00
64.00	3516.00
65.00	3354.00
66.00	3196.00
67.00	3176.00
68.00	2972.00
69.00	2960.00
70.00	2954.00
71.00	3015.00
72.00	2847.00
73.00	2882.00
74.00	2978.00
75.00	2863.00
76.00	2795.00
77.00	2896.00
78.00	2837.00
79.00	2916.00
80.00	2758.00
81.00	2945.00
82.00	2852.00
83.00	2941.00
84.00	2994.00
85.00	2940.00
86.00	2939.00
87.00	3080.00
88.00	2979.00
89.00	2918.00
90.00	2638.00
91.00	2692.00
92.00	2578.00
93.00	2572.00
94.00	2555.00
95.00	2496.00
96.00	2436.00
97.00	2370.00
98.00	2385.00
99.00	2419.00
100.00	2312.00
101.00	2275.00
102.00	2370.00
103.00	2272.00
104.00	2169.00
105.00	2191.00
106.00	2214.00
107.00	2178.00
108.00	2058.00
109.00	2164.00
110.00	2070.00
111.00	2072.00
112.00	2011.00
113.00	1994.00
114.00	1935.00
115.00	1989.00
116.00	1972.00
117.00	1901.00
118.00	1879.00
119.00	1858.00
120.00	1875.00
121.00	1808.00
122.00	1720.00
123.00	1769.00
124.00	1773.00
125.00	1644.00
126.00	1646.00
127.00	1677.00
128.00	1681.00
129.00	1598.00
130.00	1642.00
131.00	1574.00
132.00	1609.00
133.00	1598.00
134.00	1564.00
135.00	1467.00
136.00	1476.00
137.00	1472.00
138.00	1611.00
139.00	1562.00
140.00	1620.00
141.00	1700.00
142.00	1778.00
143.00	1768.00
144.00	1812.00
145.00	1784.00
146.00	1777.00
147.00	1864.00
148.00	1814.00
149.00	1721.00
150.00	1683.00
151.00	1591.00
152.00	1580.00
153.00	1504.00
154.00	1534.00
155.00	1437.00
156.00	1449.00
157.00	1415.00
158.00	1402.00
159.00	1347.00
160.00	1288.00
161.00	1405.00
162.00	1559.00
163.00	1858.00
164.00	2258.00
165.00	2942.00
166.00	3911.00
167.00	5011.00
168.00	5886.00
169.00	6705.00
170.00	7244.00
171.00	7491.00
172.00	6932.00
173.00	6357.00
174.00	5488.00
175.00	4359.00
176.00	3487.00
177.00	2791.00
178.00	2326.00
179.00	2061.00
180.00	1921.00
181.00	1825.00
182.00	1873.00
183.00	1915.00
184.00	2080.00
185.00	2386.00
186.00	2800.00
187.00	3303.00
188.00	3771.00
189.00	4436.00
190.00	4625.00
191.00	4663.00
192.00	4528.00
193.00	4136.00
194.00	3673.00
195.00	3063.00
196.00	2501.00
197.00	2027.00
198.00	1644.00
199.00	1415.00
200.00	1189.00
201.00	1127.00
202.00	1030.00
203.00	977.00
204.00	940.00
205.00	915.00
206.00	970.00
207.00	985.00
208.00	945.00
209.00	989.00
210.00	972.00
211.00	944.00
212.00	908.00
213.00	957.00
214.00	1003.00
215.00	990.00
216.00	1032.00
217.00	1145.00
218.00	1188.00
219.00	1454.00
220.00	1519.00
221.00	1638.00
222.00	1709.00
223.00	1886.00
224.00	1886.00
225.00	1996.00
226.00	1864.00
227.00	1773.00
228.00	1703.00
229.00	1525.00
230.00	1367.00
231.00	1272.00
232.00	1016.00
233.00	973.00
234.00	928.00
235.00	885.00
236.00	825.00
237.00	816.00
238.00	803.00
239.00	823.00
240.00	825.00
241.00	848.00
242.00	861.00
243.00	969.00
244.00	1060.00
245.00	1276.00
246.00	1451.00
247.00	2019.00
248.00	2824.00
249.00	4137.00
250.00	5838.00
251.00	8201.00
252.00	10850.00
253.00	14134.00
254.00	16763.00
255.00	19614.00
256.00	21048.00
257.00	21767.00
258.00	21037.00
259.00	19419.00
260.00	16898.00
261.00	13927.00
262.00	11030.00
263.00	8128.00
264.00	5806.00
265.00	3959.00
266.00	2849.00
267.00	2235.00
268.00	1787.00
269.00	1697.00
270.00	1792.00
271.00	1982.00
272.00	2213.00
273.00	2588.00
274.00	2785.00
275.00	2874.00
276.00	2926.00
277.00	2845.00
278.00	2748.00
279.00	2612.00
280.00	2241.00
281.00	2177.00
282.00	2132.00
283.00	2047.00
284.00	2308.00
285.00	2612.00
286.00	2986.00
287.00	3217.00
288.00	3677.00
289.00	3709.00
290.00	3705.00
291.00	3656.00
292.00	3310.00
293.00	2959.00
294.00	2524.00
295.00	2156.00
296.00	1711.00
297.00	1325.00
298.00	1110.00
299.00	943.00
300.00	783.00
301.00	767.00
302.00	718.00
303.00	666.00
304.00	748.00
305.00	734.00
306.00	821.00
307.00	852.00
308.00	914.00
309.00	1045.00
310.00	1141.00
311.00	1214.00
312.00	1432.00
313.00	1702.00
314.00	2040.00
315.00	2668.00
316.00	3445.00
317.00	4672.00
318.00	6143.00
319.00	7816.00
320.00	9845.00
321.00	12079.00
322.00	13987.00
323.00	14991.00
324.00	15891.00
325.00	15842.00
326.00	15449.00
327.00	13934.00
328.00	11983.00
329.00	9830.00
330.00	7879.00
331.00	5911.00
332.00	4406.00
333.00	3049.00
334.00	2272.00
335.00	1701.00
336.00	1306.00
337.00	1138.00
338.00	1029.00
339.00	1081.00
340.00	1151.00
341.00	1322.00
342.00	1567.00
343.00	2012.00
344.00	2460.00
345.00	3288.00
346.00	4560.00
347.00	6340.00
348.00	9217.00
349.00	14079.00
350.00	20966.00
351.00	31570.00
352.00	46963.00
353.00	67401.00
354.00	95098.00
355.00	127908.00
356.00	166766.00
357.00	207777.00
358.00	248246.00
359.00	282066.00
360.00	306519.00
361.00	318762.00
362.00	315631.00
363.00	299186.00
364.00	269723.00
365.00	232838.00
366.00	191816.00
367.00	150192.00
368.00	112028.00
369.00	81083.00
370.00	56007.00
371.00	36896.00
372.00	23618.00
373.00	14879.00
374.00	9162.00
375.00	5711.00
376.00	4048.00
377.00	3265.00
378.00	3039.00
379.00	3229.00
380.00	3832.00
381.00	5054.00
382.00	6630.00
383.00	8882.00
384.00	11729.00
385.00	15385.00
386.00	20011.00
387.00	25796.00
388.00	31595.00
389.00	37016.00
390.00	42361.00
391.00	46291.00
392.00	49518.00
393.00	49778.00
394.00	47904.00
395.00	44863.00
396.00	39552.00
397.00	33748.00
398.00	27565.00
399.00	21796.00
400.00	16307.00
401.00	11704.00
402.00	8332.00
403.00	5743.00
404.00	3853.00
405.00	2489.00
406.00	1667.00
407.00	1121.00
408.00	892.00
409.00	706.00
410.00	614.00
411.00	547.00
412.00	509.00
413.00	533.00
414.00	534.00
415.00	528.00
416.00	542.00
417.00	556.00
418.00	560.00
419.00	562.00
420.00	542.00
421.00	607.00
422.00	598.00
423.00	582.00
424.00	637.00
425.00	716.00
426.00	722.00
427.00	875.00
428.00	971.00
429.00	1145.00
430.00	1429.00
431.00	1740.00
432.00	2229.00
433.00	2905.00
434.00	3589.00
435.00	4380.00
436.00	5421.00
437.00	6120.00
438.00	7043.00
439.00	7518.00
440.00	7898.00
441.00	7972.00
442.00	7931.00
443.00	7397.00
444.00	6843.00
445.00	6153.00
446.00	5333.00
447.00	4354.00
448.00	3728.00
449.00	2966.00
450.00	2636.00
451.00	2175.00
452.00	2014.00
453.00	1814.00
454.00	1707.00
455.00	1586.00
456.00	1555.00
457.00	1506.00
458.00	1471.00
459.00	1344.00
460.00	1305.00
461.00	1197.00
462.00	1150.00
463.00	1169.00
464.00	1143.00
465.00	1105.00
466.00	1171.00
467.00	1205.00
468.00	1268.00
469.00	1354.00
470.00	1469.00
471.00	1550.00
472.00	1671.00
473.00	1794.00
474.00	1929.00
475.00	2075.00
476.00	2183.00
477.00	2400.00
478.00	2508.00
479.00	2654.00
480.00	2801.00
481.00	2800.00
482.00	2899.00
483.00	2897.00
484.00	2750.00
485.00	2707.00
486.00	2632.00
487.00	2401.00
488.00	2285.00
489.00	2008.00
490.00	1954.00
491.00	1632.00
492.00	1491.00
493.00	1533.00
494.00	1352.00
495.00	1306.00
496.00	1321.00
497.00	1291.00
498.00	1302.00
499.00	1323.00
500.00	1243.00
501.00	1320.00
502.00	1334.00
503.00	1348.00
504.00	1415.00
505.00	1430.00
506.00	1444.00
507.00	1567.00
508.00	1677.00
509.00	1630.00
510.00	1680.00
511.00	1808.00
512.00	1804.00
513.00	1987.00
514.00	2024.00
515.00	2093.00
516.00	2280.00
517.00	2309.00
518.00	2448.00
519.00	2721.00
520.00	2934.00
521.00	3049.00
522.00	3370.00
523.00	3743.00
524.00	3925.00
525.00	4207.00
526.00	4540.00
527.00	4752.00
528.00	4722.00
529.00	4781.00
530.00	4663.00
531.00	4559.00
532.00	4274.00
533.00	4205.00
534.00	3804.00
535.00	3417.00
536.00	3140.00
537.00	2919.00
538.00	2727.00
539.00	2537.00
540.00	2421.00
541.00	2526.00
542.00	2330.00
543.00	2260.00
544.00	2205.00
545.00	2294.00
546.00	2276.00
547.00	2402.00
548.00	2466.00
549.00	2491.00
550.00	2537.00
551.00	2696.00
552.00	2647.00
553.00	2716.00
554.00	2752.00
555.00	2805.00
556.00	2807.00
557.00	2902.00
558.00	2936.00
559.00	3030.00
560.00	3181.00
561.00	3061.00
562.00	3243.00
563.00	3288.00
564.00	3411.00
565.00	3487.00
566.00	3723.00
567.00	4004.00
568.00	4321.00
569.00	4576.00
570.00	5033.00
571.00	5314.00
572.00	5459.00
573.00	5795.00
574.00	6160.00
575.00	6227.00
576.00	6352.00
577.00	6384.00
578.00	6311.00
579.00	5909.00
580.00	5631.00
581.00	5268.00
582.00	4869.00
583.00	4443.00
584.00	4266.00
585.00	3769.00
586.00	3386.00
587.00	3240.00
588.00	2949.00
589.00	2775.00
590.00	2746.00
591.00	2577.00
592.00	2597.00
593.00	2655.00
594.00	2675.00
595.00	2751.00
596.00	2623.00
597.00	2802.00
598.00	2911.00
599.00	2915.00
600.00	2966.00
601.00	3111.00
602.00	3314.00
603.00	3500.00
604.00	3715.00
605.00	3888.00
606.00	4526.00
607.00	5193.00
608.00	6207.00
609.00	7828.00
610.00	10154.00
611.00	13526.00
612.00	18317.00
613.00	24760.00
614.00	33491.00
615.00	44412.00
616.00	57894.00
617.00	74491.00
618.00	91548.00
619.00	112341.00
620.00	132248.00
621.00	151662.00
622.00	169576.00
623.00	183806.00
624.00	192459.00
625.00	197542.00
626.00	196436.00
627.00	189237.00
628.00	176985.00
629.00	161028.00
630.00	142114.00
631.00	121726.00
632.00	102305.00
633.00	82891.00
634.00	65901.00
635.00	50966.00
636.00	39066.00
637.00	28865.00
638.00	21742.00
639.00	16113.00
640.00	12261.00
641.00	9432.00
642.00	7671.00
643.00	6332.00
644.00	5811.00
645.00	5204.00
646.00	4926.00
647.00	4670.00
648.00	4625.00
649.00	4653.00
650.00	4534.00
651.00	4641.00
652.00	4481.00
653.00	4587.00
654.00	4623.00
655.00	4590.00
656.00	4535.00
657.00	4618.00
658.00	4675.00
659.00	4802.00
660.00	4784.00
661.00	4843.00
662.00	4933.00
663.00	4909.00
664.00	5153.00
665.00	5242.00
666.00	5379.00
667.00	5563.00
668.00	5561.00
669.00	5807.00
670.00	5890.00
671.00	6125.00
672.00	6313.00
673.00	7004.00
674.00	7540.00
675.00	8516.00
676.00	9239.00
677.00	10526.00
678.00	12100.00
679.00	14066.00
680.00	16504.00
681.00	18945.00
682.00	21624.00
683.00	25009.00
684.00	27690.00
685.00	30570.00
686.00	33378.00
687.00	34922.00
688.00	36278.00
689.00	36702.00
690.00	36137.00
691.00	34836.00
692.00	32966.00
693.00	30352.00
694.00	28190.00
695.00	24890.00
696.00	21855.00
697.00	18898.00
698.00	16046.00
699.00	13640.00
700.00	11655.00
701.00	10131.00
702.00	8883.00
703.00	7784.00
704.00	7147.00
705.00	6704.00
706.00	6380.00
707.00	6302.00
708.00	6075.00
709.00	6115.00
710.00	6087.00
711.00	6246.00
712.00	6541.00
713.00	6374.00
714.00	6629.00
715.00	6773.00
716.00	6895.00
717.00	7129.00
718.00	7403.00
719.00	7435.00
720.00	7820.00
721.00	7919.00
722.00	8116.00
723.00	8543.00
724.00	8722.00
725.00	9121.00
726.00	9153.00
727.00	9495.00
728.00	9477.00
729.00	9380.00
730.00	9623.00
731.00	9568.00
732.00	9307.00
733.00	9181.00
734.00	8939.00
735.00	8707.00
736.00	8427.00
737.00	8440.00
738.00	8170.00
739.00	7827.00
740.00	7949.00
741.00	7488.00
742.00	7418.00
743.00	7389.00
744.00	7280.00
745.00	7244.00
746.00	7391.00
747.00	7302.00
748.00	7015.00
749.00	7055.00
750.00	7161.00
751.00	7073.00
752.00	7134.00
753.00	7002.00
754.00	7223.00
755.00	7158.00
756.00	7068.00
757.00	7066.00
758.00	7276.00
759.00	7165.00
760.00	7376.00
761.00	7086.00
762.00	7300.00
763.00	7311.00
764.00	7307.00
765.00	7375.00
766.00	7464.00
767.00	7409.00
768.00	7535.00
769.00	7672.00
770.00	7799.00
771.00	7879.00
772.00	7984.00
773.00	8043.00
774.00	8238.00
775.00	8413.00
776.00	8752.00
777.00	8881.00
778.00	9450.00
779.00	9603.00
780.00	9862.00
781.00	10216.00
782.00	10599.00
783.00	10970.00
784.00	11289.00
785.00	11738.00
786.00	11894.00
787.00	12241.00
788.00	12658.00
789.00	13271.00
790.00	13331.00
791.00	13395.00
792.00	13795.00
793.00	14141.00
794.00	14350.00
795.00	14287.00
796.00	14754.00
797.00	14757.00
798.00	15195.00
799.00	15177.00
800.00	15403.00
801.00	15757.00
802.00	15790.00
803.00	16000.00
804.00	16016.00
805.00	16356.00
806.00	17087.00
807.00	17690.00
808.00	18200.00
809.00	19071.00
810.00	19955.00
811.00	20800.00
812.00	22077.00
813.00	23738.00
814.00	24527.00
815.00	25535.00
816.00	26831.00
817.00	27375.00
818.00	28271.00
819.00	27941.00
820.00	28208.00
821.00	27920.00
822.00	27043.00
823.00	26251.00
824.00	24805.00
825.00	23375.00
826.00	21981.00
827.00	20765.00
828.00	19230.00
829.00	17864.00
830.00	16731.00
831.00	15921.00
832.00	15043.00
833.00	14325.00
834.00	13986.00
835.00	13634.00
836.00	13471.00
837.00	13169.00
838.00	13032.00
839.00	13055.00
840.00	12985.00
841.00	13181.00
842.00	13230.00
843.00	13139.00
844.00	13000.00
845.00	12938.00
846.00	12933.00
847.00	12910.00
848.00	12776.00
849.00	12838.00
850.00	12719.00
851.00	12907.00
852.00	12841.00
853.00	12648.00
854.00	12646.00
855.00	12781.00
856.00	12801.00
857.00	12817.00
858.00	12805.00
859.00	12512.00
860.00	12764.00
861.00	12866.00
862.00	12843.00
863.00	12843.00
864.00	12784.00
865.00	12907.00
866.00	12936.00
867.00	12842.00
868.00	13014.00
869.00	13123.00
870.00	13123.00
871.00	13175.00
872.00	13266.00
873.00	13225.00
874.00	13256.00
875.00	13267.00
876.00	13174.00
877.00	13224.00
878.00	13160.00
879.00	13446.00
880.00	13494.00
881.00	13737.00
882.00	13528.00
883.00	13756.00
884.00	13730.00
885.00	14074.00
886.00	14112.00
887.00	14431.00
888.00	14325.00
889.00	14437.00
890.00	14675.00
891.00	14611.00
892.00	14941.00
893.00	15345.00
894.00	15411.00
895.00	15514.00
896.00	15711.00
897.00	15973.00
898.00	15818.00
899.00	16323.00
900.00	16761.00
901.00	16943.00
902.00	17105.00
903.00	17263.00
904.00	17502.00
905.00	17743.00
906.00	18046.00
907.00	17978.00
908.00	18321.00
909.00	18494.00
910.00	18671.00
911.00	18558.00
912.00	19158.00
913.00	19280.00
914.00	19142.00
915.00	19542.00
916.00	19490.00
917.00	19632.00
918.00	19601.00
919.00	19680.00
920.00	19817.00
921.00	20139.00
922.00	20230.00
923.00	20168.00
924.00	20418.00
925.00	20634.00
926.00	20665.00
927.00	20752.00
928.00	21156.00
929.00	20939.00
930.00	21584.00
931.00	21725.00
932.00	21953.00
933.00	22365.00
934.00	23076.00
935.00	23480.00
936.00	24009.00
937.00	24650.00
938.00	25322.00
939.00	25507.00
940.00	26306.00
941.00	26455.00
942.00	26700.00
943.00	26882.00
944.00	26949.00
945.00	26422.00
946.00	26482.00
947.00	25809.00
948.00	25475.00
949.00	24923.00
950.00	24221.00
951.00	24341.00
952.00	23285.00
953.00	22833.00
954.00	22164.00
955.00	21701.00
956.00	21282.00
957.00	21053.00
958.00	20746.00
959.00	20855.00
960.00	20672.00
961.00	20351.00
962.00	20547.00
963.00	20535.00
964.00	20407.00
965.00	20733.00
966.00	20749.00
967.00	20752.00
968.00	20875.00
969.00	20594.00
970.00	21055.00
971.00	20981.00
972.00	21058.00
973.00	20844.00
974.00	20746.00
975.00	20375.00
976.00	20102.00
977.00	20183.00
978.00	19703.00
979.00	19479.00
980.00	18951.00
981.00	18865.00
982.00	18690.00
983.00	18503.00
984.00	18481.00
985.00	18151.00
986.00	18126.00
987.00	17939.00
988.00	17951.00
989.00	17721.00
990.00	17641.00
991.00	17703.00
992.00	17818.00
993.00	17850.00
994.00	17584.00
995.00	17605.00
996.00	17612.00
997.00	17589.00
998.00	17344.00
999.00	17625.00
1000.00	17504.00
1001.00	17403.00
1002.00	17696.00
1003.00	17543.00
1004.00	17515.00
1005.00	17534.00
1006.00	17538.00
1007.00	17452.00
1008.00	17652.00
1009.00	17591.00
1010.00	17458.00
1011.00	17462.00
1012.00	17563.00
1013.00	17545.00
1014.00	17640.00
1015.00	17701.00
1016.00	17876.00
1017.00	17496.00
1018.00	17642.00
1019.00	18066.00
1020.00	18026.00
1021.00	18115.00
1022.00	18266.00
1023.00	17881.00
1024.00	18223.00
1025.00	18065.00
1026.00	18056.00
1027.00	18364.00
1028.00	18414.00
1029.00	18267.00
1030.00	18136.00
1031.00	18200.00
1032.00	18313.00
1033.00	18324.00
1034.00	18744.00
1035.00	18104.00
1036.00	18419.00
1037.00	18318.00
1038.00	18415.00
1039.00	18415.00
1040.00	18185.00
1041.00	18495.00
1042.00	18443.00
1043.00	18325.00
1044.00	18423.00
1045.00	18306.00
1046.00	18737.00
1047.00	18592.00
1048.00	18712.00
1049.00	18739.00
1050.00	18720.00
1051.00	18934.00
1052.00	18708.00
1053.00	18708.00
1054.00	18973.00
1055.00	19011.00
1056.00	18941.00
1057.00	19069.00
1058.00	18803.00
1059.00	19044.00
1060.00	19269.00
1061.00	19315.00
1062.00	19227.00
1063.00	19593.00
1064.00	19453.00
1065.00	19305.00
1066.00	19720.00
1067.00	19590.00
1068.00	19714.00
1069.00	19598.00
1070.00	19828.00
1071.00	19412.00
1072.00	19844.00
1073.00	19735.00
1074.00	19529.00
1075.00	19586.00
1076.00	19823.00
1077.00	19805.00
1078.00	19717.00
1079.00	19888.00
1080.00	19698.00
1081.00	19912.00
1082.00	20034.00
1083.00	19986.00
1084.00	19854.00
1085.00	20027.00
1086.00	20003.00
1087.00	20107.00
1088.00	20198.00
1089.00	20194.00
1090.00	20325.00
1091.00	20270.00
1092.00	20482.00
1093.00	20877.00
1094.00	20891.00
1095.00	20758.00
1096.00	20949.00
1097.00	21018.00
1098.00	21231.00
1099.00	21081.00
1100.00	21362.00
1101.00	21526.00
1102.00	21565.00
1103.00	21562.00
1104.00	21374.00
1105.00	21262.00
1106.00	21285.00
1107.00	21409.00
1108.00	21328.00
1109.00	20983.00
1110.00	21223.00
1111.00	21274.00
1112.00	20945.00
1113.00	21212.00
1114.00	21040.00
1115.00	20632.00
1116.00	21009.00
1117.00	20995.00
1118.00	21217.00
1119.00	20921.00
1120.00	20993.00
1121.00	21034.00
1122.00	20995.00
1123.00	20871.00
1124.00	21122.00
1125.00	20839.00
1126.00	21039.00
1127.00	21379.00
1128.00	21206.00
1129.00	20966.00
1130.00	21265.00
1131.00	21211.00
1132.00	21410.00
1133.00	21185.00
1134.00	21080.00
1135.00	21311.00
1136.00	21250.00
1137.00	21365.00
1138.00	21425.00
1139.00	21328.00
1140.00	21557.00
1141.00	21062.00
1142.00	21405.00
1143.00	21433.00
1144.00	21501.00
1145.00	21614.00
1146.00	21553.00
1147.00	21769.00
1148.00	21631.00
1149.00	21858.00
1150.00	22144.00
1151.00	22489.00
1152.00	22649.00
1153.00	22940.00
1154.00	23084.00
1155.00	23375.00
1156.00	23539.00
1157.00	23705.00
1158.00	23860.00
1159.00	24115.00
1160.00	24401.00
1161.00	24562.00
1162.00	24083.00
1163.00	24312.00
1164.00	23945.00
1165.00	24432.00
1166.00	24071.00
1167.00	23914.00
1168.00	23476.00
1169.00	23013.00
1170.00	23055.00
1171.00	22998.00
1172.00	22417.00
1173.00	21967.00
1174.00	21993.00
1175.00	22020.00
1176.00	21897.00
1177.00	21641.00
1178.00	21174.00
1179.00	21485.00
1180.00	21288.00
1181.00	21269.00
1182.00	21478.00
1183.00	21398.00
1184.00	21057.00
1185.00	21114.00
1186.00	21421.00
1187.00	21273.00
1188.00	21331.00
1189.00	21223.00
1190.00	21244.00
1191.00	21173.00
1192.00	21640.00
1193.00	21094.00
1194.00	21365.00
1195.00	21253.00
1196.00	21253.00
1197.00	21271.00
1198.00	21483.00
1199.00	21366.00
1200.00	21206.00
1201.00	21375.00
1202.00	21524.00
1203.00	21270.00
1204.00	21598.00
1205.00	21676.00
1206.00	21624.00
1207.00	21855.00
1208.00	22061.00
1209.00	21777.00
1210.00	21781.00
1211.00	21900.00
1212.00	21746.00
1213.00	21973.00
1214.00	21364.00
1215.00	21932.00
1216.00	22200.00
1217.00	22023.00
1218.00	22017.00
1219.00	22026.00
1220.00	22016.00
1221.00	22134.00
1222.00	22084.00
1223.00	22274.00
1224.00	22252.00
1225.00	22608.00
1226.00	22207.00
1227.00	22491.00
1228.00	22058.00
1229.00	22584.00
1230.00	22683.00
1231.00	22443.00
1232.00	22779.00
1233.00	22550.00
1234.00	22573.00
1235.00	22633.00
1236.00	22642.00
1237.00	22684.00
1238.00	22627.00
1239.00	22755.00
1240.00	22563.00
1241.00	23136.00
1242.00	22750.00
1243.00	22828.00
1244.00	22655.00
1245.00	22728.00
1246.00	22398.00
1247.00	22744.00
1248.00	22879.00
1249.00	22669.00
1250.00	23028.00
1251.00	22832.00
1252.00	22567.00
1253.00	22844.00
1254.00	23070.00
1255.00	22547.00
1256.00	22946.00
1257.00	22990.00
1258.00	22688.00
1259.00	22702.00
1260.00	22953.00
1261.00	23106.00
1262.00	22624.00
1263.00	23239.00
1264.00	22932.00
1265.00	23035.00
1266.00	22799.00
1267.00	22831.00
1268.00	23265.00
1269.00	23384.00
1270.00	22953.00
1271.00	23277.00
1272.00	23188.00
1273.00	23075.00
1274.00	22897.00
1275.00	23244.00
1276.00	23142.00
1277.00	23409.00
1278.00	22912.00
1279.00	22813.00
1280.00	23513.00
1281.00	23237.00
1282.00	23433.00
1283.00	23245.00
1284.00	23344.00
1285.00	23695.00
1286.00	23887.00
1287.00	24119.00
1288.00	24631.00
1289.00	24355.00
1290.00	24116.00
1291.00	24935.00
1292.00	25021.00
1293.00	25101.00
1294.00	25949.00
1295.00	25391.00
1296.00	26042.00
1297.00	26059.00
1298.00	26577.00
1299.00	26555.00
1300.00	26718.00
1301.00	26880.00
1302.00	27150.00
1303.00	26951.00
1304.00	27279.00
1305.00	27001.00
1306.00	27327.00
1307.00	27205.00
1308.00	26844.00
1309.00	26829.00
1310.00	26660.00
1311.00	26345.00
1312.00	25691.00
1313.00	25899.00
1314.00	25496.00
1315.00	25592.00
1316.00	25224.00
1317.00	24886.00
1318.00	24607.00
1319.00	24605.00
1320.00	24377.00
1321.00	24275.00
1322.00	24173.00
1323.00	24383.00
1324.00	24113.00
1325.00	24146.00
1326.00	23925.00
1327.00	23868.00
1328.00	23847.00
1329.00	23714.00
1330.00	23897.00
1331.00	24008.00
1332.00	24214.00
1333.00	23796.00
1334.00	24170.00
1335.00	23880.00
1336.00	23858.00
1337.00	24206.00
1338.00	24098.00
1339.00	24299.00
1340.00	23927.00
1341.00	24075.00
1342.00	24198.00
1343.00	24088.00
1344.00	24336.00
1345.00	24132.00
1346.00	23841.00
1347.00	24036.00
1348.00	24619.00
1349.00	24324.00
1350.00	24157.00
1351.00	24184.00
1352.00	24444.00
1353.00	24715.00
1354.00	24474.00
1355.00	24978.00
1356.00	25327.00
1357.00	25331.00
1358.00	25658.00
1359.00	26279.00
1360.00	26731.00
1361.00	27726.00
1362.00	28397.00
1363.00	29163.00
1364.00	30672.00
1365.00	31569.00
1366.00	32925.00
1367.00	34871.00
1368.00	36271.00
1369.00	38317.00
1370.00	39872.00
1371.00	41824.00
1372.00	43744.00
1373.00	45239.00
1374.00	47124.00
1375.00	48841.00
1376.00	50141.00
1377.00	51090.00
1378.00	51660.00
1379.00	51877.00
1380.00	52124.00
1381.00	51666.00
1382.00	50979.00
1383.00	49787.00
1384.00	48498.00
1385.00	46857.00
1386.00	45265.00
1387.00	42910.00
1388.00	41535.00
1389.00	39252.00
1390.00	37541.00
1391.00	35532.00
1392.00	33531.00
1393.00	32237.00
1394.00	31014.00
1395.00	29317.00
1396.00	28342.00
1397.00	27376.00
1398.00	26363.00
1399.00	25828.00
1400.00	25241.00
1401.00	24730.00
1402.00	24338.00
1403.00	24186.00
1404.00	24041.00
1405.00	23868.00
1406.00	23865.00
1407.00	23614.00
1408.00	23819.00
1409.00	23550.00
1410.00	23523.00
1411.00	23214.00
1412.00	23303.00
1413.00	23584.00
1414.00	23226.00
1415.00	23388.00
1416.00	23199.00
1417.00	23252.00
1418.00	23304.00
1419.00	23344.00
1420.00	23449.00
1421.00	23335.00
1422.00	23221.00
1423.00	22995.00
1424.00	23377.00
1425.00	23500.00
1426.00	23455.00
1427.00	23173.00
1428.00	22946.00
1429.00	22916.00
1430.00	23198.00
1431.00	23487.00
1432.00	23174.00
1433.00	23117.00
1434.00	23259.00
1435.00	23302.00
1436.00	23391.00
1437.00	23395.00
1438.00	23381.00
1439.00	23645.00
1440.00	23564.00
1441.00	23300.00
1442.00	23443.00
1443.00	23333.00
1444.00	23448.00
1445.00	23888.00
1446.00	23697.00
1447.00	24177.00
1448.00	23885.00
1449.00	24040.00
1450.00	24166.00
1451.00	24154.00
1452.00	24285.00
1453.00	24466.00
1454.00	24452.00
1455.00	24297.00
1456.00	24609.00
1457.00	24340.00
1458.00	24790.00
1459.00	24509.00
1460.00	24402.00
1461.00	24249.00
1462.00	24336.00
1463.00	24329.00
1464.00	24318.00
1465.00	24361.00
1466.00	24257.00
1467.00	24373.00
1468.00	24071.00
1469.00	24123.00
1470.00	24291.00
1471.00	23747.00
1472.00	23841.00
1473.00	24329.00
1474.00	24155.00
1475.00	24104.00
1476.00	23983.00
1477.00	24058.00
1478.00	23709.00
1479.00	24003.00
1480.00	24017.00
1481.00	23932.00
1482.00	23729.00
1483.00	24183.00
1484.00	24166.00
1485.00	24134.00
1486.00	24278.00
1487.00	24339.00
1488.00	24109.00
1489.00	24356.00
1490.00	24514.00
1491.00	24299.00
1492.00	24545.00
1493.00	24072.00
1494.00	24629.00
1495.00	24549.00
1496.00	24441.00
1497.00	24672.00
1498.00	24562.00
1499.00	24791.00
1500.00	24510.00
1501.00	24747.00
1502.00	24796.00
1503.00	24811.00
1504.00	24853.00
1505.00	24724.00
1506.00	24875.00
1507.00	24888.00
1508.00	25219.00
1509.00	25238.00
1510.00	25130.00
1511.00	25682.00
1512.00	25708.00
1513.00	25538.00
1514.00	26114.00
1515.00	26147.00
1516.00	26814.00
1517.00	26517.00
1518.00	26439.00
1519.00	27204.00
1520.00	27505.00
1521.00	27904.00
1522.00	28441.00
1523.00	28671.00
1524.00	29244.00
1525.00	29759.00
1526.00	30132.00
1527.00	30644.00
1528.00	31398.00
1529.00	32218.00
1530.00	32641.00
1531.00	33220.00
1532.00	33997.00
1533.00	34617.00
1534.00	35043.00
1535.00	35328.00
1536.00	36107.00
1537.00	36417.00
1538.00	36781.00
1539.00	37091.00
1540.00	37547.00
1541.00	37739.00
1542.00	37756.00
1543.00	37291.00
1544.00	37460.00
1545.00	37238.00
1546.00	37108.00
1547.00	36906.00
1548.00	36728.00
1549.00	35990.00
1550.00	36375.00
1551.00	35452.00
1552.00	35438.00
1553.00	35251.00
1554.00	34933.00
1555.00	34948.00
1556.00	35064.00
1557.00	34866.00
1558.00	35319.00
1559.00	35176.00
1560.00	35725.00
1561.00	36222.00
1562.00	36437.00
1563.00	36796.00
1564.00	37601.00
1565.00	38377.00
1566.00	38390.00
1567.00	39571.00
1568.00	40005.00
1569.00	41021.00
1570.00	42201.00
1571.00	42565.00
1572.00	44115.00
1573.00	44664.00
1574.00	45657.00
1575.00	46914.00
1576.00	48158.00
1577.00	49928.00
1578.00	50660.00
1579.00	52084.00
1580.00	53458.00
1581.00	54888.00
1582.00	56086.00
1583.00	57646.00
1584.00	60124.00
1585.00	61011.00
1586.00	62840.00
1587.00	64648.00
1588.00	66568.00
1589.00	67962.00
1590.00	70439.00
1591.00	71186.00
1592.00	73450.00
1593.00	75275.00
1594.00	76276.00
1595.00	77878.00
1596.00	79577.00
1597.00	80642.00
1598.00	82786.00
1599.00	83580.00
1600.00	84269.00
1601.00	84996.00
1602.00	86609.00
1603.00	87498.00
1604.00	87726.00
1605.00	88400.00
1606.00	88724.00
1607.00	89013.00
1608.00	88722.00
1609.00	88374.00
1610.00	88642.00
1611.00	88951.00
1612.00	87925.00
1613.00	87338.00
1614.00	86364.00
1615.00	86313.00
1616.00	84502.00
1617.00	84264.00
1618.00	83022.00
1619.00	82137.00
1620.00	80333.00
1621.00	78922.00
1622.00	77305.00
1623.00	76087.00
1624.00	74522.00
1625.00	73669.00
1626.00	71125.00
1627.00	69395.00
1628.00	68349.00
1629.00	66099.00
1630.00	64790.00
1631.00	62520.00
1632.00	60803.00
1633.00	59473.00
1634.00	57502.00
1635.00	56198.00
1636.00	54363.00
1637.00	53044.00
1638.00	51311.00
1639.00	49643.00
1640.00	48596.00
1641.00	47010.00
1642.00	45713.00
1643.00	44780.00
1644.00	43100.00
1645.00	41463.00
1646.00	41229.00
1647.00	39941.00
1648.00	38914.00
1649.00	37850.00
1650.00	36690.00
1651.00	35983.00
1652.00	34990.00
1653.00	34612.00
1654.00	33474.00
1655.00	32765.00
1656.00	32269.00
1657.00	31687.00
1658.00	31241.00
1659.00	30272.00
1660.00	29927.00
1661.00	29234.00
1662.00	28796.00
1663.00	28473.00
1664.00	28110.00
1665.00	27383.00
1666.00	27372.00
1667.00	27191.00
1668.00	26794.00
1669.00	26467.00
1670.00	26739.00
1671.00	26359.00
1672.00	26467.00
1673.00	26894.00
1674.00	26831.00
1675.00	26907.00
1676.00	27314.00
1677.00	27782.00
1678.00	28414.00
1679.00	29565.00
1680.00	30173.00
1681.00	31381.00
1682.00	32875.00
1683.00	34346.00
1684.00	35979.00
1685.00	38049.00
1686.00	40397.00
1687.00	42277.00
1688.00	44956.00
1689.00	46909.00
1690.00	49567.00
1691.00	52086.00
1692.00	54547.00
1693.00	57584.00
1694.00	59378.00
1695.00	61869.00
1696.00	63986.00
1697.00	65870.00
1698.00	67399.00
1699.00	68063.00
1700.00	69350.00
1701.00	69161.00
1702.00	69654.00
1703.00	68732.00
1704.00	67994.00
1705.00	66479.00
1706.00	64842.00
1707.00	62656.00
1708.00	59833.00
1709.00	57471.00
1710.00	54876.00
1711.00	51648.00
1712.00	48797.00
1713.00	45355.00
1714.00	42347.00
1715.00	39683.00
1716.00	37263.00
1717.00	34711.00
1718.00	32546.00
1719.00	30439.00
1720.00	28896.00
1721.00	27132.00
1722.00	25993.00
1723.00	24451.00
1724.00	23553.00
1725.00	23067.00
1726.00	22123.00
1727.00	21599.00
1728.00	21147.00
1729.00	20945.00
1730.00	20422.00
1731.00	20439.00
1732.00	19974.00
1733.00	19847.00
1734.00	19987.00
1735.00	19722.00
1736.00	19673.00
1737.00	19605.00
1738.00	19657.00
1739.00	19792.00
1740.00	19604.00
1741.00	19538.00
1742.00	19642.00
1743.00	19797.00
1744.00	19781.00
1745.00	19877.00
1746.00	19916.00
1747.00	20112.00
1748.00	19898.00
1749.00	20142.00
1750.00	20454.00
1751.00	20219.00
1752.00	20376.00
1753.00	20219.00
1754.00	20470.00
1755.00	20422.00
1756.00	20945.00
1757.00	20973.00
1758.00	21186.00
1759.00	21161.00
1760.00	21373.00
1761.00	21523.00
1762.00	21805.00
1763.00	22096.00
1764.00	21968.00
1765.00	22442.00
1766.00	22525.00
1767.00	22705.00
1768.00	22965.00
1769.00	23005.00
1770.00	23224.00
1771.00	23577.00
1772.00	23751.00
1773.00	23981.00
1774.00	24266.00
1775.00	24322.00
1776.00	24667.00
1777.00	25123.00
1778.00	25060.00
1779.00	25571.00
1780.00	25398.00
1781.00	25480.00
1782.00	25759.00
1783.00	26046.00
1784.00	26246.00
1785.00	26431.00
1786.00	26643.00
1787.00	26757.00
1788.00	26953.00
1789.00	27108.00
1790.00	27092.00
1791.00	27095.00
1792.00	26898.00
1793.00	26991.00
1794.00	26826.00
1795.00	26866.00
1796.00	27032.00
1797.00	26975.00
1798.00	26684.00
1799.00	26799.00
1800.00	26776.00
1801.00	26437.00
1802.00	26406.00
1803.00	26270.00
1804.00	26075.00
1805.00	25982.00
1806.00	25709.00
1807.00	25211.00
1808.00	25103.00
1809.00	24958.00
1810.00	24640.00
1811.00	24288.00
1812.00	24129.00
1813.00	23702.00
1814.00	23519.00
1815.00	23151.00
1816.00	23051.00
1817.00	22451.00
1818.00	22163.00
1819.00	22044.00
1820.00	21729.00
1821.00	21275.00
1822.00	20780.00
1823.00	20552.00
1824.00	20252.00
1825.00	19985.00
1826.00	19377.00
1827.00	19116.00
1828.00	18981.00
1829.00	18625.00
1830.00	18369.00
1831.00	18179.00
1832.00	17931.00
1833.00	17256.00
1834.00	17241.00
1835.00	17098.00
1836.00	16749.00
1837.00	16540.00
1838.00	16156.00
1839.00	15944.00
1840.00	15670.00
1841.00	15243.00
1842.00	15108.00
1843.00	14982.00
1844.00	14745.00
1845.00	14626.00
1846.00	14473.00
1847.00	14211.00
1848.00	14056.00
1849.00	14062.00
1850.00	13580.00
1851.00	13613.00
1852.00	13292.00
1853.00	13080.00
1854.00	12838.00
1855.00	12797.00
1856.00	12796.00
1857.00	12355.00
1858.00	12428.00
1859.00	12148.00
1860.00	12071.00
1861.00	11867.00
1862.00	11805.00
1863.00	11576.00
1864.00	11421.00
1865.00	11567.00
1866.00	11260.00
1867.00	11233.00
1868.00	10981.00
1869.00	11061.00
1870.00	10899.00
1871.00	10860.00
1872.00	10867.00
1873.00	10685.00
1874.00	10777.00
1875.00	10494.00
1876.00	10343.00
1877.00	10416.00
1878.00	10373.00
1879.00	10215.00
1880.00	10398.00
1881.00	10300.00
1882.00	10037.00
1883.00	10155.00
1884.00	10268.00
1885.00	10031.00
1886.00	10101.00
1887.00	10278.00
1888.00	10332.00
1889.00	10399.00
1890.00	10301.00
1891.00	10365.00
1892.00	10589.00
1893.00	10703.00
1894.00	10783.00
1895.00	10976.00
1896.00	11441.00
1897.00	11560.00
1898.00	11958.00
1899.00	12306.00
1900.00	12482.00
1901.00	13128.00
1902.00	13334.00
1903.00	13708.00
1904.00	14137.00
1905.00	14384.00
1906.00	14922.00
1907.00	15184.00
1908.00	15497.00
1909.00	15456.00
1910.00	15340.00
1911.00	15487.00
1912.00	15505.00
1913.00	15262.00
1914.00	15071.00
1915.00	15117.00
1916.00	14577.00
1917.00	14361.00
1918.00	13665.00
1919.00	13334.00
1920.00	13015.00
1921.00	12592.00
1922.00	12046.00
1923.00	11799.00
1924.00	11367.00
1925.00	10980.00
1926.00	10832.00
1927.00	10318.00
1928.00	10038.00
1929.00	9965.00
1930.00	9820.00
1931.00	9584.00
1932.00	9411.00
1933.00	9202.00
1934.00	9173.00
1935.00	8970.00
1936.00	9094.00
1937.00	8932.00
1938.00	8919.00
1939.00	9001.00
1940.00	9005.00
1941.00	8971.00
1942.00	9095.00
1943.00	8870.00
1944.00	8910.00
1945.00	8774.00
1946.00	8776.00
1947.00	8744.00
1948.00	8795.00
1949.00	8832.00
1950.00	8698.00
1951.00	8599.00
1952.00	8487.00
1953.00	8290.00
1954.00	8256.00
1955.00	8220.00
1956.00	8059.00
1957.00	7977.00
1958.00	7958.00
1959.00	7761.00
1960.00	7675.00
1961.00	7517.00
1962.00	7507.00
1963.00	7377.00
1964.00	7290.00
1965.00	7170.00
1966.00	7212.00
1967.00	7200.00
1968.00	7234.00
1969.00	7136.00
1970.00	7255.00
1971.00	7121.00
1972.00	7059.00
1973.00	7067.00
1974.00	7027.00
1975.00	7119.00
1976.00	6983.00
1977.00	6963.00
1978.00	6976.00
1979.00	6965.00
1980.00	6951.00
1981.00	6912.00
1982.00	6911.00
1983.00	7001.00
1984.00	7023.00
1985.00	6988.00
1986.00	7064.00
1987.00	6876.00
1988.00	6934.00
1989.00	7097.00
1990.00	7032.00
1991.00	7026.00
1992.00	7116.00
1993.00	6828.00
1994.00	6978.00
1995.00	6805.00
1996.00	6933.00
1997.00	6887.00
1998.00	6932.00
1999.00	6853.00
2000.00	6948.00
2001.00	6939.00
2002.00	6842.00
2003.00	6854.00
2004.00	6781.00
2005.00	6886.00
2006.00	6812.00
2007.00	6856.00
2008.00	6776.00
2009.00	6785.00
2010.00	6830.00
2011.00	6782.00
2012.00	6768.00
2013.00	6880.00
2014.00	6869.00
2015.00	6824.00
2016.00	6657.00
2017.00	6805.00
2018.00	6676.00
2019.00	6789.00
2020.00	6702.00
2021.00	6631.00
2022.00	6670.00
2023.00	6700.00
2024.00	6650.00
2025.00	6693.00
2026.00	6654.00
2027.00	6746.00
2028.00	6772.00
2029.00	6700.00
2030.00	6660.00
2031.00	6626.00
2032.00	6588.00
2033.00	6684.00
2034.00	6543.00
2035.00	6500.00
2036.00	6514.00
2037.00	6633.00
2038.00	6487.00
2039.00	6469.00
2040.00	6630.00
2041.00	6606.00
2042.00	6372.00
2043.00	6650.00
2044.00	6483.00
2045.00	6516.00
2046.00	6605.00
2047.00	6587.00
2048.00	 0.00
